##NAMES=Clinoatacamite
##RRUFFID=R141083
##IDEAL CHEMISTRY=Cu^2+^_2_Cl(OH)_3_
##LOCALITY=Lily mine, Ica Region, Peru
##OWNER=RRUFF
##SOURCE=Marcus Origlieri
##DESCRIPTION=Dark green crystals
##STATUS=The identification of this mineral has been confirmed by single-crystal X-ray diffraction.
##URL=rruff.info/R141083
89.78320, 0.0000000E+00
90.26532, 0.2902220
90.74744, 8.8744998E-02
91.22955, 3.241455
91.71167, 8.053711
92.19379, 19.49640
92.67590, 30.66638
93.15802, 37.09027
93.64014, 27.49597
94.12225, 8.009094
94.60437, 3.692322
95.08649, 0.2192380
95.56860, 11.57800
96.05072, 16.23749
96.53284, 14.00464
97.01495, 10.13782
97.49707, 10.12463
97.97919, 13.77661
98.46130, 15.95038
98.94342, 14.01678
99.42554, 8.502930
99.90765, 7.082397
100.3898, 10.64850
100.8719, 16.13446
101.3540, 18.79877
101.8361, 17.75623
102.3182, 17.37170
102.8004, 19.19800
103.2825, 23.37030
103.7646, 28.77673
104.2467, 35.12323
104.7288, 42.73657
105.2109, 52.42993
105.6931, 64.51819
106.1752, 78.18237
106.6573, 93.25482
107.1394, 109.9424
107.6215, 127.6027
108.1036, 148.5452
108.5858, 171.3716
109.0679, 187.8998
109.5500, 194.6055
110.0321, 198.0176
110.5142, 201.5997
110.9963, 204.1317
111.4785, 208.2355
111.9606, 214.5829
112.4427, 223.0909
112.9248, 231.8245
113.4069, 237.7440
113.8890, 245.0557
114.3712, 257.2219
114.8533, 273.3738
115.3354, 295.6653
115.8175, 326.7172
116.2996, 367.7018
116.7817, 407.9893
117.2639, 449.6077
117.7460, 487.4536
118.2281, 515.0040
118.7102, 534.8495
119.1923, 540.5753
119.6744, 526.4883
120.1566, 490.2239
120.6387, 442.6951
121.1208, 382.8059
121.6029, 316.4639
122.0850, 256.2277
122.5671, 206.6196
123.0493, 166.9621
123.5314, 138.1816
124.0135, 123.0685
124.4956, 112.0117
124.9777, 95.40436
125.4598, 74.79840
125.9420, 56.43500
126.4241, 45.15747
126.9062, 38.78558
127.3883, 33.18219
127.8704, 26.87323
128.3525, 21.76190
128.8347, 21.63159
129.3168, 26.26270
129.7989, 31.68945
130.2810, 34.00824
130.7631, 34.20526
131.2452, 36.60010
131.7274, 43.41443
132.2095, 52.59351
132.6916, 57.90143
133.1737, 58.84393
133.6558, 59.56360
134.1379, 64.40979
134.6201, 73.33289
135.1022, 82.80353
135.5843, 91.37726
136.0664, 99.43781
136.5485, 109.5210
137.0306, 121.6323
137.5128, 135.9299
137.9949, 152.5472
138.4770, 171.2576
138.9591, 193.9644
139.4412, 223.4382
139.9233, 260.3317
140.4055, 291.5584
140.8876, 316.6952
141.3697, 336.5997
141.8518, 354.4242
142.3339, 374.3950
142.8160, 382.7141
143.2982, 372.7421
143.7803, 339.4663
144.2624, 303.5953
144.7445, 262.4283
145.2266, 219.5144
145.7087, 184.7123
146.1909, 158.7077
146.6730, 139.1235
147.1551, 125.2433
147.6372, 120.9344
148.1193, 115.8471
148.6014, 110.2020
149.0836, 103.8538
149.5657, 95.91858
150.0478, 84.54419
150.5299, 73.28436
151.0120, 63.59521
151.4941, 55.94318
151.9763, 49.40399
152.4584, 43.99872
152.9405, 39.87738
153.4226, 36.14496
153.9047, 31.97894
154.3868, 28.67072
154.8690, 26.92639
155.3511, 28.84119
155.8332, 30.17377
156.3153, 29.97070
156.7974, 28.41553
157.2795, 27.02100
157.7617, 25.37164
158.2438, 24.40851
158.7259, 24.81665
159.2080, 27.26599
159.6901, 30.69769
160.1722, 34.87640
160.6544, 39.77252
161.1365, 45.19684
161.6186, 50.63489
162.1007, 56.74304
162.5828, 64.23981
163.0649, 74.09399
163.5471, 84.71344
164.0292, 95.56708
164.5113, 106.5983
164.9934, 117.4553
165.4755, 127.3275
165.9576, 137.1500
166.4398, 147.9761
166.9219, 162.5801
167.4040, 176.7100
167.8861, 187.9273
168.3682, 196.2590
168.8503, 201.0778
169.3325, 201.9572
169.8146, 199.0196
170.2967, 192.5409
170.7788, 181.5766
171.2609, 167.6710
171.7430, 151.8091
172.2252, 133.7712
172.7073, 115.5244
173.1894, 97.50220
173.6715, 80.14737
174.1536, 65.14392
174.6357, 53.25546
175.1179, 43.90155
175.6000, 36.69519
176.0821, 31.84567
176.5642, 28.11893
177.0463, 24.35681
177.5284, 20.76315
178.0106, 18.04352
178.4927, 16.52679
178.9748, 15.94711
179.4569, 16.19345
179.9390, 17.44513
180.4211, 19.21268
180.9033, 20.89862
181.3854, 22.56485
181.8675, 24.50677
182.3496, 27.31900
182.8317, 30.52856
183.3138, 33.04684
183.7960, 34.70627
184.2781, 35.78766
184.7602, 36.87781
185.2423, 37.87369
185.7244, 38.00797
186.2065, 36.18582
186.6887, 32.97287
187.1708, 30.40854
187.6529, 28.69180
188.1350, 27.74973
188.6171, 27.77466
189.0992, 28.72940
189.5814, 29.80444
190.0635, 30.58072
190.5456, 31.06030
191.0277, 31.23114
191.5098, 30.96649
191.9919, 30.55795
192.4741, 30.63055
192.9562, 31.20035
193.4383, 32.06165
193.9204, 33.13852
194.4025, 34.42230
194.8846, 35.77618
195.3668, 37.17023
195.8489, 38.63831
196.3310, 40.52579
196.8131, 42.96320
197.2952, 44.81979
197.7773, 45.05746
198.2595, 43.62619
198.7416, 42.38849
199.2237, 41.63025
199.7058, 41.17728
200.1879, 40.54968
200.6700, 39.68237
201.1522, 38.88812
201.6343, 38.47891
202.1164, 38.52115
202.5985, 38.26059
203.0806, 37.61359
203.5627, 36.62653
204.0449, 35.41330
204.5270, 33.92072
205.0091, 32.34253
205.4912, 30.92981
205.9733, 29.80386
206.4554, 28.07394
206.9376, 25.44647
207.4197, 22.20654
207.9018, 19.22437
208.3839, 16.44128
208.8660, 14.05960
209.3481, 12.22668
209.8303, 10.90839
210.3124, 10.33591
210.7945, 10.93011
211.2766, 12.24115
211.7587, 12.23196
212.2408, 10.39966
212.7230, 8.296906
213.2051, 6.990662
213.6872, 6.786011
214.1693, 6.289978
214.6514, 5.303436
215.1335, 3.900024
215.6157, 2.479187
216.0978, 0.8597410
216.5799, 0.5036930
217.0620, 1.323486
217.5441, 1.504852
218.0262, 1.404053
218.5084, 0.8878480
218.9905, 0.1138610
219.4726, 0.1322630
219.9547, 0.3503420
220.4368, 1.023376
220.9189, 1.588837
221.4011, 2.171265
221.8832, 2.286621
222.3653, 1.613953
222.8474, 0.4387510
223.3295, 0.1574710
223.8116, 1.229797
224.2938, 2.413910
224.7759, 2.866943
225.2580, 2.029602
225.7401, 1.844360
226.2222, 2.777313
226.7043, 4.484222
227.1865, 5.520538
227.6686, 5.495941
228.1507, 5.310486
228.6328, 5.503448
229.1149, 6.336273
229.5970, 6.985504
230.0792, 7.560638
230.5613, 7.909485
231.0434, 7.259338
231.5255, 4.900787
232.0076, 2.572235
232.4897, 1.273621
232.9719, 1.543365
233.4540, 1.589691
233.9361, 1.230774
234.4182, 0.6105650
234.9003, 0.3464360
235.3824, 1.063110
235.8646, 1.242188
236.3467, 0.1260070
236.8288, 4.506744
237.3109, 7.069916
237.7930, 6.900726
238.2751, 4.944916
238.7573, 4.150055
239.2394, 5.113373
239.7215, 6.368103
240.2036, 7.293915
240.6857, 7.858948
241.1678, 8.115570
241.6500, 7.801605
242.1321, 7.258148
242.6142, 7.354858
243.0963, 8.317291
243.5784, 9.574493
244.0605, 10.96964
244.5427, 12.76154
245.0248, 14.02090
245.5069, 14.46848
245.9890, 14.50055
246.4711, 15.07153
246.9532, 16.76938
247.4354, 18.04901
247.9175, 18.08112
248.3996, 16.08365
248.8817, 15.44934
249.3638, 16.80304
249.8459, 19.17728
250.3281, 20.76822
250.8102, 21.23166
251.2923, 21.52063
251.7744, 21.94412
252.2565, 22.53674
252.7386, 23.13687
253.2208, 23.77603
253.7029, 24.40015
254.1850, 24.88440
254.6671, 25.04779
255.1492, 25.42148
255.6313, 26.23782
256.1135, 27.58899
256.5956, 28.73663
257.0777, 29.72440
257.5598, 30.44510
258.0419, 30.67014
258.5240, 30.12448
259.0062, 29.71017
259.4883, 29.79831
259.9704, 30.46341
260.4525, 30.45209
260.9346, 29.37131
261.4167, 28.11026
261.8989, 27.76160
262.3810, 28.66525
262.8631, 29.60287
263.3452, 30.26392
263.8273, 30.66074
264.3094, 31.44229
264.7916, 33.06754
265.2737, 34.34940
265.7558, 33.84344
266.2379, 30.79944
266.7200, 28.50143
267.2021, 27.78320
267.6843, 28.46494
268.1664, 28.67996
268.6485, 28.30362
269.1306, 27.73291
269.6127, 27.27332
270.0948, 26.92313
270.5770, 26.62875
271.0591, 26.37344
271.5412, 26.17020
272.0233, 26.06351
272.5054, 26.07953
272.9875, 26.09711
273.4697, 26.02155
273.9518, 25.82812
274.4339, 25.60153
274.9160, 25.44293
275.3981, 25.27905
275.8802, 24.75693
276.3624, 23.87305
276.8445, 22.82574
277.3266, 21.54291
277.8087, 19.93314
278.2908, 18.72455
278.7729, 17.94556
279.2551, 17.65378
279.7372, 18.38193
280.2193, 20.41849
280.7014, 22.00970
281.1835, 21.95212
281.6656, 20.18619
282.1478, 18.26636
282.6299, 16.13736
283.1120, 14.33148
283.5941, 13.93521
284.0762, 14.96683
284.5583, 15.47021
285.0405, 14.16217
285.5226, 11.38275
286.0047, 9.793335
286.4868, 9.558594
286.9689, 9.870453
287.4510, 9.804474
287.9332, 9.374115
288.4153, 8.803406
288.8974, 8.337769
289.3795, 7.971436
289.8616, 7.127472
290.3438, 5.662872
290.8259, 4.096039
291.3080, 3.122437
291.7901, 2.703186
292.2722, 2.432831
292.7543, 2.168457
293.2365, 1.875061
293.7186, 1.544281
294.2007, 1.268463
294.6828, 1.418427
295.1649, 2.489807
295.6470, 4.168701
296.1292, 5.554230
296.6113, 6.468323
297.0934, 6.942780
297.5755, 6.999695
298.0576, 6.632263
298.5397, 5.841095
299.0219, 3.897156
299.5040, 1.566772
299.9861, 0.6904600
300.4682, 2.030518
300.9503, 4.118439
301.4324, 5.309967
301.9146, 5.741669
302.3967, 6.020874
302.8788, 6.785370
303.3609, 7.541443
303.8430, 7.376129
304.3251, 5.933228
304.8073, 4.469208
305.2894, 4.147705
305.7715, 4.695068
306.2536, 5.443024
306.7357, 6.322937
307.2178, 7.102020
307.7000, 7.410156
308.1821, 7.157806
308.6642, 6.949280
309.1463, 7.303284
309.6284, 7.977051
310.1105, 8.601868
310.5927, 8.946716
311.0748, 9.229553
311.5569, 9.718201
312.0390, 10.40881
312.5211, 10.81366
313.0032, 10.51025
313.4854, 9.848175
313.9675, 9.202667
314.4496, 8.610870
314.9317, 8.151642
315.4138, 7.803711
315.8959, 7.594788
316.3781, 7.667969
316.8602, 8.462433
317.3423, 9.355133
317.8244, 9.869659
318.3065, 9.595490
318.7886, 9.359283
319.2708, 9.271545
319.7529, 9.408691
320.2350, 9.984314
320.7171, 11.58554
321.1992, 13.23035
321.6813, 14.33850
322.1635, 14.39621
322.6456, 14.91324
323.1277, 16.71695
323.6098, 19.07007
324.0919, 20.74863
324.5740, 20.89810
325.0562, 20.92297
325.5383, 21.32852
326.0204, 22.32178
326.5025, 22.92825
326.9846, 22.58453
327.4667, 22.03217
327.9489, 22.05292
328.4310, 22.60077
328.9131, 23.80298
329.3952, 26.08798
329.8773, 29.50806
330.3594, 31.94196
330.8416, 32.64819
331.3237, 32.97583
331.8058, 33.89874
332.2879, 35.69250
332.7700, 37.75330
333.2521, 40.13165
333.7343, 42.71674
334.2164, 45.09488
334.6985, 47.03534
335.1806, 49.13647
335.6627, 51.62576
336.1448, 54.35843
336.6270, 58.05240
337.1091, 63.08539
337.5912, 68.47952
338.0733, 72.72076
338.5554, 75.79758
339.0375, 78.16647
339.5197, 79.53104
340.0018, 79.72968
340.4839, 81.46832
340.9660, 85.10330
341.4481, 89.34195
341.9302, 92.08276
342.4124, 93.10867
342.8945, 95.19547
343.3766, 99.79672
343.8587, 106.1531
344.3408, 110.6079
344.8229, 112.8564
345.3051, 115.1462
345.7872, 119.8840
346.2693, 126.6694
346.7514, 133.0335
347.2335, 138.3636
347.7156, 143.0717
348.1978, 147.5106
348.6799, 151.7448
349.1620, 156.5534
349.6441, 162.6816
350.1262, 169.7659
350.6083, 176.8696
351.0905, 183.8832
351.5726, 191.1755
352.0547, 199.3177
352.5368, 208.1422
353.0189, 217.1420
353.5010, 225.8356
353.9832, 234.6703
354.4653, 244.2636
354.9474, 254.7416
355.4295, 265.4054
355.9116, 275.6026
356.3937, 285.7193
356.8759, 296.1850
357.3580, 307.7818
357.8401, 319.3789
358.3222, 330.2789
358.8043, 340.5923
359.2864, 350.3536
359.7686, 359.5228
360.2507, 368.2361
360.7328, 376.5228
361.2149, 384.5413
361.6970, 391.9925
362.1791, 399.1253
362.6613, 405.5993
363.1434, 410.6497
363.6255, 414.0210
364.1076, 415.9138
364.5897, 416.2689
365.0718, 414.8036
365.5540, 412.7015
366.0361, 410.4132
366.5182, 407.5170
367.0003, 403.5091
367.4824, 398.1329
367.9645, 391.8639
368.4467, 384.5378
368.9288, 376.2416
369.4109, 367.9015
369.8930, 360.2829
370.3751, 352.0537
370.8572, 342.2638
371.3394, 330.5545
371.8215, 318.0996
372.3036, 305.0091
372.7857, 291.2198
373.2678, 276.2810
373.7499, 259.6164
374.2321, 242.5595
374.7142, 225.7524
375.1963, 208.9714
375.6784, 192.9027
376.1605, 177.6783
376.6426, 163.1041
377.1248, 149.4832
377.6069, 136.7545
378.0890, 124.4145
378.5711, 112.2355
379.0532, 100.2676
379.5353, 89.83624
380.0175, 80.98901
380.4996, 72.97183
380.9817, 64.99435
381.4638, 57.15756
381.9459, 49.90866
382.4280, 43.24487
382.9102, 37.45181
383.3923, 33.85583
383.8744, 32.20258
384.3565, 30.23056
384.8386, 25.71460
385.3207, 19.96494
385.8029, 15.95770
386.2850, 14.12619
386.7671, 13.06235
387.2492, 11.61942
387.7313, 9.830383
388.2134, 7.795319
388.6956, 5.238312
389.1777, 2.700043
389.6598, 0.6215210
390.1419, 0.9827270
390.6240, 2.228088
391.1061, 2.924316
391.5883, 3.416656
392.0704, 4.080109
392.5525, 5.159454
393.0346, 6.222168
393.5167, 7.554474
393.9988, 8.787537
394.4810, 8.914673
394.9631, 6.088867
395.4452, 3.230988
395.9273, 1.952179
396.4094, 2.983459
396.8915, 3.843018
397.3737, 4.256622
397.8558, 4.203125
398.3379, 3.656830
398.8200, 2.832428
399.3021, 1.277985
399.7842, 1.638184
400.2664, 5.901733
400.7485, 8.716675
401.2306, 8.897339
401.7127, 8.743256
402.1948, 9.714661
402.6769, 12.27881
403.1591, 14.95447
403.6412, 17.65637
404.1233, 20.41467
404.6054, 23.47226
405.0875, 26.97964
405.5696, 30.25656
406.0518, 33.00201
406.5339, 35.20856
407.0160, 37.18338
407.4981, 38.82498
407.9802, 40.48465
408.4623, 42.73166
408.9445, 45.56757
409.4266, 48.12158
409.9087, 50.02539
410.3908, 51.59027
410.8729, 53.33694
411.3550, 55.31378
411.8372, 57.86594
412.3193, 61.52982
412.8014, 65.89136
413.2835, 69.99033
413.7656, 73.67969
414.2477, 77.33746
414.7299, 81.85498
415.2120, 86.68185
415.6941, 90.37332
416.1762, 90.64359
416.6583, 90.54190
417.1404, 93.52271
417.6226, 99.52280
418.1047, 104.6540
418.5868, 105.8532
419.0689, 105.5090
419.5510, 105.9939
420.0331, 109.1359
420.5153, 111.5658
420.9974, 111.4700
421.4795, 109.6466
421.9616, 108.1068
422.4437, 108.1961
422.9258, 107.9647
423.4080, 106.5454
423.8901, 103.6124
424.3722, 100.4606
424.8543, 96.90549
425.3364, 93.32565
425.8185, 90.09076
426.3007, 87.04700
426.7828, 84.53400
427.2649, 82.66101
427.7470, 81.38147
428.2291, 80.38614
428.7112, 79.77313
429.1934, 79.27737
429.6755, 78.68344
430.1576, 77.89658
430.6397, 77.47324
431.1218, 77.40213
431.6039, 77.72949
432.0861, 78.60309
432.5682, 80.04782
433.0503, 81.72028
433.5324, 83.63034
434.0145, 85.66690
434.4966, 87.16748
434.9788, 88.10101
435.4609, 89.55392
435.9430, 92.96286
436.4251, 97.66287
436.9072, 101.6324
437.3893, 104.2611
437.8715, 106.7799
438.3536, 110.5910
438.8357, 115.4367
439.3178, 120.5971
439.7999, 126.5809
440.2820, 132.1728
440.7642, 135.6566
441.2463, 136.9628
441.7284, 138.8429
442.2105, 143.4096
442.6926, 149.0139
443.1747, 154.0837
443.6569, 158.2236
444.1390, 161.7430
444.6211, 164.8354
445.1032, 167.3862
445.5853, 168.9648
446.0674, 169.9235
446.5496, 169.5570
447.0317, 167.2927
447.5138, 162.3799
447.9959, 157.8525
448.4780, 154.3604
448.9601, 150.8562
449.4423, 146.1877
449.9244, 139.9139
450.4065, 133.4211
450.8886, 126.7493
451.3707, 120.0388
451.8528, 113.8743
452.3350, 108.5561
452.8171, 103.2189
453.2992, 96.98682
453.7813, 89.70819
454.2634, 82.96054
454.7455, 76.81369
455.2277, 70.95038
455.7098, 64.54962
456.1919, 57.87091
456.6740, 52.18222
457.1561, 48.43988
457.6382, 45.72144
458.1204, 42.43503
458.6025, 38.54953
459.0846, 34.58487
459.5667, 30.53610
460.0488, 26.71622
460.5309, 23.68451
461.0131, 21.72256
461.4952, 19.64249
461.9773, 16.27243
462.4594, 12.36832
462.9415, 8.987457
463.4236, 6.796570
463.9058, 5.010895
464.3879, 3.308685
464.8700, 1.712250
465.3521, 0.2982180
465.8342, 1.058807
466.3163, 2.141357
466.7985, 2.764099
467.2806, 2.318573
467.7627, 2.540009
468.2448, 4.241943
468.7269, 6.285400
469.2090, 7.033081
469.6912, 5.850983
470.1733, 4.520325
470.6554, 3.349701
471.1375, 2.347717
471.6196, 1.633698
472.1017, 1.265198
472.5839, 1.023956
473.0660, 0.9768070
473.5481, 1.129883
474.0302, 0.3074950
474.5123, 1.793182
474.9944, 4.321350
475.4766, 5.922943
475.9587, 6.752625
476.4408, 7.773010
476.9229, 9.262817
477.4050, 11.23364
477.8871, 13.88956
478.3693, 17.16751
478.8514, 20.46808
479.3335, 23.09061
479.8156, 25.63062
480.2977, 28.75546
480.7798, 32.58649
481.2620, 36.94302
481.7441, 41.91620
482.2262, 47.29401
482.7083, 52.76431
483.1904, 58.75671
483.6725, 64.31882
484.1547, 68.68475
484.6368, 71.95627
485.1189, 75.88971
485.6010, 80.68362
486.0831, 86.26144
486.5652, 92.59119
487.0474, 100.2160
487.5295, 107.4320
488.0116, 113.4933
488.4937, 119.6133
488.9758, 127.8910
489.4579, 139.3371
489.9401, 149.8398
490.4222, 158.0547
490.9043, 164.6338
491.3864, 173.0061
491.8685, 183.3411
492.3506, 194.5807
492.8328, 206.5196
493.3149, 218.8442
493.7970, 230.1342
494.2791, 240.1290
494.7612, 250.0652
495.2433, 261.4791
495.7255, 274.0713
496.2076, 287.1962
496.6897, 300.7354
497.1718, 314.6024
497.6539, 328.8795
498.1360, 343.3149
498.6182, 357.2541
499.1003, 369.2767
499.5824, 381.3372
500.0645, 394.6157
500.5466, 409.7186
501.0287, 424.8069
501.5109, 438.7114
501.9930, 452.6672
502.4751, 467.7404
502.9572, 485.2116
503.4393, 502.4178
503.9214, 518.7505
504.4036, 534.4305
504.8857, 550.7067
505.3678, 567.9310
505.8499, 585.4484
506.3320, 603.0244
506.8141, 620.6487
507.2963, 638.4119
507.7784, 656.4492
508.2605, 674.8695
508.7426, 694.6631
509.2247, 715.6597
509.7068, 735.3194
510.1890, 753.2393
510.6711, 769.4323
511.1532, 784.0010
511.6353, 796.7662
512.1174, 806.5864
512.5995, 814.0854
513.0817, 817.7986
513.5638, 815.4399
514.0459, 807.0922
514.5280, 795.3723
515.0101, 781.6259
515.4922, 765.3843
515.9744, 746.3380
516.4565, 723.9091
516.9386, 699.4796
517.4207, 673.1577
517.9028, 645.1993
518.3849, 616.0181
518.8671, 583.9877
519.3492, 552.5505
519.8313, 522.0294
520.3134, 492.6634
520.7955, 463.9294
521.2776, 435.6492
521.7598, 408.1362
522.2419, 381.8744
522.7240, 356.8062
523.2061, 332.2998
523.6882, 307.7678
524.1703, 284.7465
524.6525, 265.7717
525.1346, 250.5887
525.6167, 235.8340
526.0988, 220.6572
526.5809, 205.4466
527.0630, 190.7437
527.5452, 176.7990
528.0273, 164.2204
528.5094, 153.6419
528.9915, 144.3545
529.4736, 135.5089
529.9557, 127.0016
530.4379, 118.8185
530.9200, 110.7779
531.4021, 103.0107
531.8842, 95.60886
532.3663, 88.24728
532.8484, 81.71182
533.3306, 76.96140
533.8127, 73.13489
534.2948, 68.54160
534.7769, 61.52631
535.2590, 55.42737
535.7411, 51.34247
536.2233, 49.21191
536.7054, 46.17233
537.1875, 41.77435
537.6696, 37.40720
538.1517, 33.96841
538.6339, 31.55579
539.1160, 29.26468
539.5981, 27.10513
540.0802, 24.94870
540.5623, 22.30707
541.0444, 19.35202
541.5266, 17.00806
542.0087, 15.73816
542.4908, 15.01169
542.9729, 14.44830
543.4550, 13.90594
543.9371, 12.78455
544.4193, 9.933838
544.9014, 6.971497
545.3835, 5.287292
545.8656, 5.039185
546.3477, 5.112274
546.8298, 5.349121
547.3120, 5.516235
547.7941, 5.357422
548.2762, 4.420715
548.7583, 3.897705
549.2404, 4.221558
549.7225, 5.010773
550.2047, 5.476074
550.6868, 5.417053
551.1689, 5.213440
551.6510, 4.823792
552.1331, 4.341217
552.6152, 4.508606
553.0974, 5.510651
553.5795, 6.232056
554.0616, 5.331451
554.5437, 3.287933
555.0258, 3.018402
555.5079, 4.860596
555.9901, 7.392853
556.4722, 9.302277
556.9543, 10.78973
557.4364, 12.34940
557.9185, 14.47781
558.4006, 16.21558
558.8828, 16.22537
559.3649, 15.26453
559.8470, 15.10172
560.3291, 16.83212
560.8112, 18.94571
561.2933, 21.00168
561.7755, 23.04535
562.2576, 25.07208
562.7397, 27.74860
563.2218, 29.89558
563.7039, 30.69022
564.1860, 28.83173
564.6682, 28.87975
565.1503, 31.46085
565.6324, 35.19992
566.1145, 38.51559
566.5966, 41.48413
567.0787, 43.57108
567.5609, 44.29753
568.0430, 44.44012
568.5251, 45.79904
569.0072, 48.29277
569.4893, 50.87158
569.9714, 53.29501
570.4536, 55.34959
570.9357, 56.39053
571.4178, 56.49635
571.8999, 56.98944
572.3820, 59.31247
572.8641, 62.05917
573.3463, 63.90059
573.8284, 64.27881
574.3105, 64.64786
574.7926, 65.61472
575.2747, 66.75607
575.7568, 67.53036
576.2390, 67.57358
576.7211, 67.66617
577.2032, 68.04596
577.6853, 68.52686
578.1674, 68.44269
578.6495, 67.69531
579.1317, 66.69467
579.6138, 65.58211
580.0959, 64.35339
580.5780, 63.10229
581.0601, 61.85051
581.5422, 60.18098
582.0244, 57.27005
582.5065, 53.69464
582.9886, 51.09799
583.4707, 49.80463
583.9528, 48.64786
584.4349, 46.37108
584.9171, 43.58371
585.3992, 41.21225
585.8813, 40.55682
586.3634, 39.32565
586.8455, 35.84415
587.3276, 30.99571
587.8098, 27.34882
588.2919, 26.35638
588.7740, 25.66092
589.2561, 24.58727
589.7382, 23.12497
590.2203, 21.78339
590.7025, 20.65042
591.1846, 19.50882
591.6667, 18.26300
592.1488, 16.91275
592.6309, 15.32127
593.1130, 13.41640
593.5952, 11.46214
594.0773, 9.595932
594.5594, 7.919449
595.0415, 6.922760
595.5236, 6.947433
596.0057, 7.247971
596.4879, 7.187546
596.9700, 6.767197
597.4521, 5.986984
597.9342, 4.169983
598.4163, 2.586288
598.8984, 2.224472
599.3806, 2.929993
599.8627, 3.189102
600.3448, 2.377686
600.8269, 1.271561
601.3090, 0.1384580
601.7911, 1.159393
602.2733, 1.896790
602.7554, 1.789658
603.2375, 1.522690
603.7196, 1.983017
604.2017, 3.357346
604.6838, 3.347458
605.1660, 1.258926
605.6481, 1.324051
606.1302, 1.687134
606.6123, 0.2086490
607.0944, 1.393738
607.5765, 2.830353
608.0587, 3.745026
608.5408, 3.270538
609.0229, 1.814072
609.5050, 0.8309330
609.9871, 1.823349
610.4692, 2.923462
610.9514, 2.846695
611.4335, 1.440399
611.9156, 0.3200230
612.3977, 0.1677250
612.8798, 0.2843480
613.3619, 0.1370540
613.8441, 0.5627290
614.3262, 0.8019710
614.8083, 0.2902220
615.2904, 0.3001710
615.7725, 7.1869001E-02
616.2546, 1.494278
616.7368, 2.480682
617.2189, 2.880280
617.7010, 2.473923
618.1831, 4.2343002E-02
618.6652, 3.961243
619.1473, 6.443253
619.6295, 5.003723
620.1116, 2.194550
620.5937, 0.2028960
621.0758, 0.9819030
621.5579, 1.464630
622.0400, 0.5462650
622.5222, 0.5043790
623.0043, 0.9261320
623.4864, 0.5398560
623.9685, 7.1869001E-02
624.4506, 0.8447570
624.9327, 1.441940
625.4149, 1.140503
625.8970, 0.4074100
626.3791, 1.872345
626.8612, 3.362000
627.3433, 4.506912
627.8254, 4.561157
628.3076, 3.584900
628.7897, 2.819733
629.2718, 2.574768
629.7539, 2.660065
630.2360, 2.853546
630.7181, 3.147293
631.2003, 3.505188
631.6824, 4.071335
632.1645, 4.575058
632.6466, 4.640793
633.1287, 4.367279
633.6108, 4.423538
634.0930, 5.308228
634.5751, 6.328186
635.0572, 7.228134
635.5393, 8.069336
636.0214, 8.395279
636.5035, 7.866547
636.9857, 7.250092
637.4678, 7.146912
637.9499, 7.623215
638.4320, 8.111816
638.9141, 8.612839
639.3962, 9.000702
639.8784, 9.071198
640.3605, 8.883026
640.8426, 8.560059
641.3247, 7.913483
641.8068, 7.550018
642.2889, 8.439545
642.7711, 10.12297
643.2532, 11.55545
643.7353, 12.18304
644.2174, 12.51768
644.6995, 12.71344
645.1816, 12.80779
645.6638, 12.94398
646.1459, 13.00069
646.6280, 13.21347
647.1101, 13.68227
647.5922, 14.41556
648.0743, 15.38754
648.5565, 16.84303
649.0386, 17.89294
649.5207, 17.35265
650.0028, 15.49887
650.4849, 14.99995
650.9670, 16.17410
651.4492, 17.78545
651.9313, 18.71803
652.4134, 19.10802
652.8955, 19.16373
653.3776, 18.82805
653.8597, 18.43365
654.3419, 17.96684
654.8240, 17.64699
655.3061, 17.79701
655.7882, 19.28883
656.2703, 20.34595
656.7524, 20.27386
657.2346, 19.50453
657.7167, 19.29662
658.1988, 19.85092
658.6809, 20.51526
659.1630, 21.16190
659.6451, 21.66296
660.1273, 21.61441
660.6094, 21.03633
661.0915, 20.56802
661.5736, 20.70387
662.0557, 21.10011
662.5378, 21.46759
663.0200, 21.90836
663.5021, 21.84453
663.9842, 19.81227
664.4663, 17.49548
664.9484, 16.59102
665.4305, 18.00705
665.9127, 19.11447
666.3948, 19.41687
666.8769, 19.24139
667.3590, 18.79677
667.8411, 17.59753
668.3232, 16.81033
668.8054, 16.87572
669.2875, 17.25075
669.7696, 16.54709
670.2517, 14.69296
670.7338, 13.57638
671.2159, 14.03510
671.6981, 15.10391
672.1802, 15.12901
672.6623, 14.41718
673.1444, 13.91368
673.6265, 14.47575
674.1086, 14.96243
674.5908, 14.33435
675.0729, 12.83452
675.5550, 11.91728
676.0371, 12.84955
676.5192, 13.90523
677.0013, 14.13716
677.4835, 13.37730
677.9656, 13.27596
678.4477, 14.36035
678.9298, 15.07915
679.4119, 13.92543
679.8940, 10.93636
680.3762, 9.941513
680.8583, 11.26390
681.3404, 13.02324
681.8225, 13.31778
682.3046, 12.58876
682.7867, 11.83887
683.2689, 11.34828
683.7510, 10.93849
684.2331, 10.39430
684.7152, 9.763809
685.1973, 9.125473
685.6794, 7.864014
686.1616, 7.325119
686.6437, 8.418793
687.1258, 10.20688
687.6079, 11.05530
688.0900, 10.81758
688.5721, 10.06306
689.0543, 8.757156
689.5364, 7.160278
690.0185, 5.848785
690.5006, 4.849106
690.9827, 4.520905
691.4648, 5.560150
691.9470, 7.132813
692.4291, 8.088608
692.9112, 8.455582
693.3933, 8.324051
693.8754, 7.141052
694.3575, 5.926651
694.8397, 5.372696
695.3218, 5.582779
695.8039, 5.972412
696.2860, 6.956894
696.7681, 7.622452
697.2502, 7.382233
697.7324, 5.934662
698.2145, 5.197617
698.6966, 5.362717
699.1787, 5.743988
699.6608, 5.429199
700.1429, 4.720200
700.6251, 5.416199
701.1072, 7.904495
701.5893, 9.984161
702.0714, 9.066116
702.5535, 6.784775
703.0356, 5.589920
703.5178, 6.887253
703.9999, 8.031174
704.4820, 8.063370
704.9641, 7.390213
705.4462, 6.519958
705.9283, 5.112457
706.4105, 4.140213
706.8926, 3.735596
707.3747, 3.814117
707.8568, 4.302917
708.3389, 5.253967
708.8210, 6.079880
709.3032, 6.596832
709.7853, 6.851120
710.2674, 7.018234
710.7495, 7.037048
711.2316, 6.635391
711.7137, 4.943024
712.1959, 3.386841
712.6780, 3.328827
713.1601, 4.559372
713.6422, 5.331528
714.1243, 4.789124
714.6064, 3.965332
715.0886, 3.256058
715.5707, 2.655914
716.0528, 2.295792
716.5349, 2.228836
717.0170, 2.266678
717.4991, 2.329575
717.9813, 2.406250
718.4634, 2.354080
718.9455, 2.157089
719.4276, 2.106186
719.9097, 2.677704
720.3918, 3.451736
720.8740, 3.763092
721.3561, 3.421341
721.8382, 3.239380
722.3203, 4.072723
722.8024, 4.961197
723.2845, 5.037399
723.7667, 3.405502
724.2488, 2.398300
724.7309, 2.190552
725.2130, 2.412308
725.6951, 2.741165
726.1772, 3.200562
726.6594, 3.345047
727.1415, 3.048050
727.6236, 2.570374
728.1057, 2.215195
728.5878, 1.960541
729.0699, 1.761795
729.5521, 1.633591
730.0342, 1.511169
730.5163, 1.364716
730.9984, 1.191696
731.4805, 0.9907840
731.9626, 0.7182620
732.4448, 0.4662320
732.9269, 0.2385100
733.4090, 4.2969000E-02
733.8911, 0.1171420
734.3732, 0.2700500
734.8553, 0.2595210
735.3375, 5.4336999E-02
735.8196, 0.4885410
736.3017, 0.3431850
736.7838, 0.2387850
737.2659, 0.3580930
737.7480, 0.9649960
738.2302, 2.599579
738.7123, 3.531067
739.1944, 3.842377
739.6765, 4.014267
740.1586, 4.337967
740.6407, 4.442230
741.1229, 4.010468
741.6050, 3.081116
742.0871, 2.552734
742.5692, 2.610168
743.0513, 2.619492
743.5334, 1.956253
744.0156, 0.8274080
744.4977, 1.420883
744.9798, 3.739548
745.4619, 5.584335
745.9440, 4.351700
746.4261, 2.101746
746.9083, 1.558273
747.3904, 2.981766
747.8725, 4.475067
748.3546, 5.709503
748.8367, 6.286804
749.3188, 5.695465
749.8010, 3.358749
750.2831, 1.957825
750.7652, 1.706741
751.2473, 2.047623
751.7294, 2.818970
752.2115, 3.993073
752.6937, 4.161224
753.1758, 3.109283
753.6579, 2.013748
754.1400, 2.540436
754.6221, 3.701233
755.1042, 3.699356
755.5864, 1.849808
756.0685, 0.1948390
756.5506, 0.2380520
757.0327, 0.8212280
757.5148, 0.7492830
757.9969, 1.591003
758.4791, 2.134338
758.9612, 0.2837830
759.4433, 3.227264
759.9254, 3.194595
760.4075, 1.1826000E-02
760.8896, 1.643524
761.3718, 0.7055660
761.8539, 1.204300
762.3360, 2.344360
762.8181, 2.821579
763.3002, 2.794266
763.7823, 1.963699
764.2645, 1.313232
764.7466, 1.438171
765.2287, 2.012573
765.7108, 2.612839
766.1929, 3.614655
766.6750, 4.011810
767.1572, 3.379150
767.6393, 2.315125
768.1214, 2.028946
768.6035, 2.586349
769.0856, 3.003098
769.5677, 3.080582
770.0499, 2.908157
770.5320, 2.078262
771.0141, 1.058762
771.4962, 1.107529
771.9783, 4.162979
772.4604, 6.944107
772.9426, 7.126328
773.4247, 5.789200
773.9068, 5.491959
774.3889, 7.631104
774.8710, 9.353928
775.3531, 9.839432
775.8353, 9.696793
776.3174, 10.96118
776.7995, 13.66071
777.2816, 15.81319
777.7637, 16.57838
778.2458, 16.70743
778.7280, 17.45103
779.2101, 18.57169
779.6922, 19.45625
780.1743, 18.91380
780.6564, 18.99596
781.1385, 21.30397
781.6207, 25.24164
782.1028, 28.20007
782.5849, 29.71184
783.0670, 30.78433
783.5491, 31.21872
784.0313, 31.36693
784.5134, 32.57092
784.9955, 34.92120
785.4776, 37.20993
785.9597, 38.52785
786.4418, 39.66910
786.9240, 41.84953
787.4061, 44.85263
787.8882, 47.87402
788.3703, 50.70555
788.8524, 53.18715
789.3345, 55.00952
789.8167, 56.29042
790.2988, 57.82301
790.7809, 59.67885
791.2630, 61.72668
791.7451, 64.02917
792.2272, 66.46979
792.7094, 68.71320
793.1915, 70.76744
793.6736, 72.97269
794.1557, 75.84741
794.6378, 78.71149
795.1199, 80.48813
795.6021, 81.43822
796.0842, 82.64236
796.5663, 85.33270
797.0484, 87.58319
797.5305, 88.24147
798.0126, 87.50412
798.4948, 87.08640
798.9769, 87.08002
799.4590, 87.17142
799.9411, 87.29709
800.4232, 87.41495
800.9053, 87.45490
801.3875, 87.36240
801.8696, 86.66119
802.3517, 84.74971
802.8338, 82.38635
803.3159, 80.38968
803.7980, 78.64024
804.2802, 76.36514
804.7623, 72.83580
805.2444, 69.27777
805.7265, 66.02478
806.2086, 63.08052
806.6907, 60.74130
807.1729, 59.25955
807.6550, 57.23193
808.1371, 53.73897
808.6192, 49.29893
809.1013, 45.07846
809.5834, 41.10641
810.0656, 37.51108
810.5477, 34.35068
811.0298, 31.60745
811.5119, 29.14474
811.9940, 27.03194
812.4761, 25.66885
812.9583, 26.51581
813.4404, 26.24141
813.9225, 23.27167
814.4046, 18.30620
814.8867, 15.33191
815.3688, 14.42828
815.8510, 13.77020
816.3331, 12.48047
816.8152, 11.20236
817.2973, 11.07123
817.7794, 11.63510
818.2615, 11.22510
818.7437, 7.693329
819.2258, 4.404205
819.7079, 3.165771
820.1900, 3.645294
820.6721, 3.392242
821.1542, 1.899994
821.6364, 0.7912600
822.1185, 0.7747190
822.6006, 1.455139
823.0827, 1.446533
823.5648, 0.8289180
824.0469, 0.2766420
824.5291, 0.1331180
825.0112, 0.2264100
825.4933, 0.6493230
825.9754, 1.205170
826.4575, 1.280304
826.9396, 5.3955000E-02
827.4218, 1.050598
827.9039, 1.114929
828.3860, 0.5354610
828.8681, 0.2869260
829.3502, 0.4083860
829.8323, 0.3792110
830.3145, 0.1574100
830.7966, 0.6405030
831.2787, 0.2436830
831.7608, 2.129974
832.2429, 3.865051
832.7250, 5.394257
833.2072, 6.162750
833.6893, 5.156067
834.1714, 3.177277
834.6535, 2.441650
835.1356, 4.036072
835.6177, 5.074982
836.0999, 4.880737
836.5820, 4.013428
837.0641, 3.796600
837.5462, 4.160248
838.0283, 4.243195
838.5104, 3.505493
838.9926, 2.865692
839.4747, 4.078857
839.9568, 5.960297
840.4389, 6.447296
840.9210, 2.594818
841.4031, 2.2552000E-02
841.8853, 1.270325
842.3674, 3.829224
842.8495, 3.947083
843.3316, 0.9445800
843.8137, 1.001801
844.2958, 1.031982
844.7780, 0.2864380
845.2601, 0.2272030
845.7422, 0.7296750
846.2243, 1.561493
846.7064, 2.830658
847.1885, 3.982269
847.6707, 4.357880
848.1528, 4.598022
848.6349, 5.485046
849.1170, 7.475006
849.5991, 9.368469
850.0812, 11.07199
850.5634, 12.81070
851.0455, 14.87839
851.5276, 17.25110
852.0097, 19.65976
852.4918, 22.04349
852.9739, 24.76758
853.4561, 28.63522
853.9382, 32.78665
854.4203, 36.08377
854.9024, 37.88065
855.3845, 40.37476
855.8666, 44.01593
856.3488, 48.53665
856.8309, 53.95782
857.3130, 60.57465
857.7951, 65.90268
858.2772, 69.67279
858.7593, 73.59540
859.2415, 79.45493
859.7236, 86.32639
860.2057, 92.98502
860.6878, 99.28125
861.1699, 104.9176
861.6520, 108.4697
862.1342, 112.4409
862.6163, 118.7971
863.0984, 127.5688
863.5805, 135.9070
864.0626, 143.9000
864.5447, 151.0755
865.0269, 156.8690
865.5090, 161.7050
865.9911, 167.0688
866.4732, 172.7833
866.9553, 177.7540
867.4374, 181.2684
867.9196, 183.7771
868.4017, 185.8275
868.8838, 187.2495
869.3659, 186.5689
869.8480, 183.3810
870.3301, 178.6877
870.8123, 172.2685
871.2944, 164.7256
871.7765, 158.2292
872.2586, 152.7186
872.7407, 146.6124
873.2228, 138.3857
873.7050, 130.2969
874.1871, 124.9033
874.6692, 121.4274
875.1513, 118.1007
875.6334, 113.4619
876.1155, 110.1747
876.5977, 108.5519
877.0798, 108.5034
877.5619, 110.0683
878.0440, 113.3251
878.5261, 117.1286
879.0082, 121.3531
879.4904, 125.8483
879.9725, 130.1898
880.4546, 134.8870
880.9367, 140.6943
881.4188, 147.5009
881.9009, 156.0913
882.3831, 168.1482
882.8652, 181.4312
883.3473, 193.2649
883.8294, 203.1512
884.3115, 213.9996
884.7936, 225.9418
885.2758, 238.5140
885.7579, 251.0892
886.2400, 264.0586
886.7221, 278.0740
887.2042, 293.1114
887.6863, 309.8212
888.1685, 330.7650
888.6506, 352.0258
889.1327, 370.3643
889.6148, 385.1572
890.0969, 401.5628
890.5790, 421.0047
891.0612, 438.8213
891.5433, 451.9879
892.0254, 461.4517
892.5075, 470.9299
892.9896, 479.9211
893.4717, 485.2139
893.9539, 485.5013
894.4360, 481.0526
894.9181, 471.0744
895.4002, 456.0175
895.8823, 439.4421
896.3644, 422.0830
896.8466, 402.4624
897.3287, 379.6523
897.8108, 354.4281
898.2929, 327.2453
898.7750, 298.9268
899.2571, 272.6455
899.7393, 250.2914
900.2214, 229.0797
900.7035, 206.4149
901.1856, 183.8591
901.6677, 164.1964
902.1498, 149.7631
902.6320, 135.4744
903.1141, 120.3499
903.5962, 105.8795
904.0783, 94.76025
904.5604, 86.66534
905.0425, 78.38358
905.5247, 69.34250
906.0068, 60.71555
906.4889, 53.34451
906.9710, 47.15329
907.4531, 42.13321
907.9352, 38.33972
908.4174, 35.35669
908.8995, 33.31601
909.3816, 31.77386
909.8637, 30.42331
910.3458, 29.24704
910.8279, 29.07672
911.3101, 29.92719
911.7922, 30.92511
912.2743, 30.84113
912.7564, 30.96591
913.2385, 32.89047
913.7206, 36.48370
914.2028, 40.35590
914.6849, 43.81985
915.1670, 47.85345
915.6491, 52.75168
916.1312, 58.42389
916.6133, 64.48682
917.0955, 70.96634
917.5776, 78.10101
918.0597, 86.17899
918.5418, 94.75827
919.0239, 103.2123
919.5060, 111.8088
919.9882, 120.9294
920.4703, 130.4712
920.9524, 141.0112
921.4345, 152.4720
921.9166, 164.9306
922.3987, 178.8510
922.8809, 194.4293
923.3630, 208.8877
923.8451, 221.8737
924.3272, 234.4253
924.8093, 247.3981
925.2914, 260.6218
925.7736, 274.0844
926.2557, 288.2191
926.7378, 300.2079
927.2199, 308.8370
927.7020, 315.2308
928.1841, 319.8010
928.6663, 322.5296
929.1484, 324.2257
929.6305, 325.0199
930.1126, 322.1584
930.5947, 312.7256
931.0768, 299.3362
931.5590, 284.9603
932.0411, 269.4709
932.5232, 253.0507
933.0053, 234.2200
933.4874, 215.9301
933.9695, 198.9893
934.4517, 182.9428
934.9338, 165.7738
935.4159, 147.5652
935.8980, 131.0407
936.3801, 117.3582
936.8622, 105.4339
937.3444, 94.84659
937.8265, 85.20941
938.3086, 75.76144
938.7907, 65.97702
939.2728, 57.26389
939.7549, 50.00818
940.2371, 43.80090
940.7192, 38.24109
941.2013, 33.35675
941.6834, 28.89093
942.1655, 24.82458
942.6476, 21.63690
943.1298, 20.44714
943.6119, 19.94897
944.0940, 18.78287
944.5761, 16.86267
945.0582, 14.68756
945.5403, 11.36969
946.0225, 9.120209
946.5046, 8.893707
946.9867, 10.22397
947.4688, 11.33786
947.9509, 12.28589
948.4330, 13.08859
948.9152, 13.19556
949.3973, 13.59375
949.8794, 15.80737
950.3615, 19.06680
950.8436, 21.94522
951.3257, 23.05640
951.8079, 25.40036
952.2900, 29.42499
952.7721, 34.08133
953.2542, 38.14462
953.7363, 41.83408
954.2184, 46.13730
954.7006, 51.14105
955.1827, 56.30399
955.6648, 60.61682
956.1469, 65.43500
956.6290, 72.18027
957.1111, 81.34186
957.5933, 90.26303
958.0754, 98.06656
958.5575, 106.8231
959.0396, 117.9423
959.5217, 130.6718
960.0038, 142.1464
960.4860, 152.5870
960.9681, 163.5395
961.4502, 175.3016
961.9323, 188.4589
962.4144, 204.0134
962.8965, 220.8598
963.3787, 236.2077
963.8608, 248.9211
964.3429, 263.4799
964.8250, 280.6142
965.3071, 299.1721
965.7892, 317.7990
966.2714, 336.4877
966.7535, 355.7662
967.2356, 375.8055
967.7177, 394.8910
968.1998, 411.2296
968.6819, 426.4557
969.1641, 442.0234
969.6462, 458.3965
970.1283, 471.9468
970.6104, 482.8936
971.0925, 490.7664
971.5746, 495.3605
972.0568, 496.7537
972.5389, 495.0750
973.0210, 490.3628
973.5031, 482.7999
973.9852, 472.5308
974.4673, 459.2008
974.9495, 441.2525
975.4316, 421.0280
975.9137, 402.6776
976.3958, 386.3538
976.8779, 370.5292
977.3600, 355.0714
977.8422, 339.8339
978.3243, 324.1297
978.8064, 308.4997
979.2885, 293.8877
979.7706, 280.5176
980.2527, 267.8250
980.7349, 255.7391
981.2170, 244.1443
981.6991, 233.7151
982.1812, 224.0593
982.6633, 211.8689
983.1454, 197.3018
983.6276, 182.8232
984.1097, 169.2916
984.5918, 156.8885
985.0739, 146.6447
985.5560, 137.6925
986.0381, 127.7837
986.5203, 115.9671
987.0024, 104.7057
987.4845, 94.04221
987.9666, 84.57188
988.4487, 77.91585
988.9308, 73.14218
989.4130, 66.99966
989.8951, 58.65781
990.3772, 51.28487
990.8593, 47.49115
991.3414, 44.77013
991.8235, 41.21921
992.3057, 36.69429
992.7878, 33.17215
993.2699, 30.71265
993.7520, 28.40317
994.2341, 25.66757
994.7162, 22.82413
995.1984, 20.52145
995.6805, 18.58588
996.1626, 16.62984
996.6447, 14.42172
997.1268, 12.21922
997.6089, 9.714767
998.0911, 7.471634
998.5732, 6.580429
999.0553, 7.025986
999.5374, 6.912109
1000.020, 6.004440
1000.502, 4.616791
1000.984, 2.406113
1001.466, 0.2992400
1001.948, 0.6337590
1002.430, 0.1415560
1002.912, 0.2144930
1003.394, 0.3579560
1003.876, 0.2431490
1004.359, 9.7626001E-02
1004.841, 0.7323000
1005.323, 2.354233
1005.805, 4.571503
1006.287, 5.626175
1006.769, 3.776413
1007.251, 1.855453
1007.733, 1.170151
1008.216, 1.383621
1008.698, 2.125412
1009.180, 3.822937
1009.662, 4.288589
1010.144, 3.172577
1010.626, 1.983353
1011.108, 2.620071
1011.590, 3.938431
1012.072, 4.127396
1012.555, 3.118469
1013.037, 2.163895
1013.519, 1.223862
1014.001, 1.002975
1014.483, 2.198868
1014.965, 4.140335
1015.447, 4.309723
1015.929, 2.875336
1016.411, 1.875259
1016.894, 2.180283
1017.376, 2.619217
1017.858, 1.821335
1018.340, 0.6790310
1018.822, 0.4550630
1019.304, 1.964737
1019.786, 2.505188
1020.268, 1.700302
1020.751, 0.8515780
1021.233, 1.339935
1021.715, 2.489227
1022.197, 2.276672
1022.679, 0.8913270
1023.161, 0.3418430
1023.643, 0.9646610
1024.125, 1.067551
1024.607, 0.1354680
1025.090, 1.087448
1025.572, 0.8354030
1026.054, 1.023651
1026.536, 2.385437
1027.018, 2.824844
1027.500, 2.875931
1027.982, 2.839798
1028.464, 2.880798
1028.947, 3.302567
1029.429, 4.209030
1029.911, 4.796173
1030.393, 5.115082
1030.875, 5.045959
1031.357, 4.262619
1031.839, 3.159744
1032.321, 3.342377
1032.803, 4.513031
1033.286, 5.394089
1033.768, 5.217255
1034.250, 4.795792
1034.732, 4.062332
1035.214, 3.501984
1035.696, 3.995422
1036.178, 5.930389
1036.660, 6.557495
1037.143, 5.508087
1037.625, 4.332611
1038.107, 4.785400
1038.589, 5.719437
1039.071, 5.360779
1039.553, 3.724960
1040.035, 3.249771
1040.517, 5.392609
1041.000, 7.277023
1041.482, 8.122452
1041.964, 8.219666
1042.446, 7.970993
1042.928, 7.514587
1043.410, 7.554642
1043.892, 8.603851
1044.374, 9.256287
1044.856, 8.029648
1045.339, 6.482544
1045.821, 6.083939
1046.303, 7.051605
1046.785, 7.658844
1047.267, 7.896637
1047.749, 7.886200
1048.231, 7.671570
1048.713, 7.294189
1049.195, 6.479362
1049.677, 5.529427
1050.160, 5.341789
1050.642, 7.145157
1051.124, 8.361748
1051.606, 8.605873
1052.088, 8.320320
1052.570, 8.001389
1053.052, 7.663048
1053.534, 7.347214
1054.017, 7.051018
1054.499, 6.993828
1054.981, 7.775620
1055.463, 8.404587
1055.945, 8.079636
1056.427, 7.015732
1056.909, 6.357849
1057.391, 6.108055
1057.874, 6.316910
1058.356, 7.276581
1058.838, 8.131889
1059.320, 7.533295
1059.802, 6.258720
1060.284, 5.458427
1060.766, 5.633507
1061.248, 5.631729
1061.730, 5.164673
1062.213, 4.982765
1062.695, 6.011810
1063.177, 7.660461
1063.659, 7.869888
1064.141, 6.894043
1064.623, 5.829582
1065.105, 4.675797
1065.587, 3.989441
1066.070, 4.186798
1066.552, 4.809250
1067.034, 5.295547
1067.516, 5.721878
1067.998, 5.699081
1068.480, 5.104866
1068.962, 4.707359
1069.444, 6.036079
1069.927, 7.388351
1070.409, 6.756920
1070.891, 4.048546
1071.373, 2.983437
1071.855, 4.361336
1072.337, 5.082237
1072.819, 3.821793
1073.301, 2.013954
1073.783, 2.593079
1074.266, 4.429047
1074.748, 4.940529
1075.230, 2.668465
1075.712, 1.325249
1076.194, 2.848717
1076.676, 4.439613
1077.158, 4.159027
1077.640, 2.303658
1078.122, 1.464157
1078.604, 1.566467
1079.087, 1.895859
1079.569, 2.335648
1080.051, 2.644753
1080.533, 2.627441
1081.015, 2.424660
1081.497, 2.260559
1081.979, 2.090469
1082.461, 2.060791
1082.944, 2.207970
1083.426, 2.223869
1083.908, 1.630783
1084.390, 0.8556900
1084.872, 0.4855040
1085.354, 0.5061190
1085.836, 0.3526310
1086.318, 0.5731810
1086.801, 0.6156390
1087.283, 0.9731220
1087.765, 3.073814
1088.247, 3.573784
1088.729, 2.927940
1089.211, 2.216476
1089.693, 1.555969
1090.175, 1.324112
1090.657, 2.183586
1091.140, 3.029495
1091.622, 3.210396
1092.104, 2.829323
1092.586, 2.728584
1093.068, 2.886864
1093.550, 3.116272
1094.032, 3.365944
1094.514, 3.591103
1094.997, 3.794182
1095.479, 3.933281
1095.961, 4.011200
1096.443, 4.091042
1096.925, 3.759674
1097.407, 2.857018
1097.889, 2.352806
1098.371, 3.575211
1098.854, 5.300346
1099.336, 6.066940
1099.818, 5.969086
1100.300, 5.541702
1100.782, 4.451553
1101.264, 3.879852
1101.746, 4.130119
1102.228, 4.634132
1102.710, 4.510025
1103.193, 4.066559
1103.675, 4.127975
1104.157, 4.802094
1104.639, 5.511040
1105.121, 6.227982
1105.603, 6.649437
1106.085, 6.569099
1106.567, 6.174973
1107.049, 6.094368
1107.531, 6.264755
1108.014, 6.185226
1108.496, 5.618835
1108.978, 5.193024
1109.460, 5.645882
1109.942, 6.216881
1110.424, 6.182358
1110.906, 5.502251
1111.388, 4.949318
1111.871, 4.502136
1112.353, 4.528389
1112.835, 5.611893
1113.317, 6.777969
1113.799, 6.743530
1114.281, 6.096115
1114.763, 5.845779
1115.245, 6.547157
1115.728, 6.799202
1116.210, 6.442841
1116.692, 6.214218
1117.174, 7.117371
1117.656, 8.339539
1118.138, 8.175606
1118.620, 6.961143
1119.102, 6.128052
1119.584, 6.370758
1120.067, 6.796127
1120.549, 7.463966
1121.031, 8.023743
1121.513, 7.720146
1121.995, 6.875839
1122.477, 6.744568
1122.959, 7.420601
1123.441, 8.048637
1123.924, 8.176704
1124.406, 8.216515
1124.888, 8.460312
1125.370, 8.710190
1125.852, 8.273575
1126.334, 7.203812
1126.816, 6.145844
1127.298, 5.240448
1127.781, 4.614830
1128.263, 4.256165
1128.745, 4.248573
1129.227, 4.920868
1129.709, 6.257187
1130.191, 6.914803
1130.673, 6.841301
1131.155, 6.470100
1131.637, 5.849724
1132.120, 5.411888
1132.602, 5.771751
1133.084, 6.445869
1133.566, 6.813683
1134.048, 6.844597
1134.530, 6.642677
1135.012, 6.104614
1135.494, 5.612549
1135.976, 5.620720
1136.458, 5.745560
1136.941, 5.249916
1137.423, 4.344864
1137.905, 3.566917
1138.387, 2.864754
1138.869, 2.545357
1139.351, 2.659439
1139.833, 3.127243
1140.315, 4.162445
1140.798, 5.399193
1141.280, 5.854477
1141.762, 5.592094
1142.244, 5.302689
1142.726, 5.492432
1143.208, 5.387856
1143.690, 4.727661
1144.172, 3.758553
1144.655, 2.825592
1145.137, 2.083885
1145.619, 1.830276
1146.101, 2.093391
1146.583, 2.445221
1147.065, 2.911179
1147.547, 3.101181
1148.029, 2.767372
1148.511, 2.134476
1148.994, 1.744400
1149.476, 1.582130
1149.958, 1.604912
1150.440, 1.817169
1150.922, 2.167740
1151.404, 2.771439
1151.886, 3.364143
1152.368, 3.838394
1152.851, 4.162941
1153.333, 3.767746
1153.815, 2.642738
1154.297, 1.918900
1154.779, 2.250694
1155.261, 2.596313
1155.743, 1.549797
1156.225, 0.2749860
1156.708, 0.3474880
1157.190, 2.089752
1157.672, 2.755753
1158.154, 2.236526
1158.636, 1.579231
1159.118, 1.386490
1159.600, 1.351143
1160.082, 1.025047
1160.564, 0.6374970
1161.047, 0.6276250
1161.529, 1.289963
1162.011, 1.731873
1162.493, 1.861420
1162.975, 2.149361
1163.457, 3.571167
1163.939, 4.951378
1164.421, 4.067139
1164.903, 1.716034
1165.385, 0.3758540
1165.868, 1.331955
1166.350, 1.966240
1166.832, 2.032959
1167.314, 1.885773
1167.796, 1.822952
1168.278, 1.841156
1168.760, 2.093849
1169.242, 2.479103
1169.725, 2.465599
1170.207, 1.424988
1170.689, 0.8516310
1171.171, 1.083588
1171.653, 1.649277
1172.135, 1.975136
1172.617, 2.097565
1173.099, 2.079041
1173.582, 1.929047
1174.064, 1.760017
1174.546, 1.664345
1175.028, 1.475578
1175.510, 1.070213
1175.992, 0.6435170
1176.474, 0.5918810
1176.956, 0.8499300
1177.438, 1.347061
1177.921, 2.134773
1178.403, 2.781670
1178.885, 2.880051
1179.367, 2.555061
1179.849, 1.715500
1180.331, 0.7585530
1180.813, 1.033325
1181.295, 2.125732
1181.778, 2.300232
1182.260, 0.6572110
1182.742, 0.3773570
1183.224, 0.9697650
1183.706, 2.590286
1184.188, 3.395508
1184.670, 3.471169
1185.152, 3.001030
1185.635, 2.148132
1186.117, 1.800789
1186.599, 2.658546
1187.081, 3.325806
1187.563, 2.723267
1188.045, 2.006744
1188.527, 2.182861
1189.009, 3.134987
1189.491, 3.209808
1189.974, 2.518623
1190.456, 1.897522
1190.938, 1.681412
1191.420, 1.740784
1191.902, 2.557938
1192.384, 3.205315
1192.866, 2.571922
1193.348, 0.6111300
1193.830, 0.3554460
1194.313, 0.3903430
1194.795, 0.3144230
1195.277, 0.8619920
1195.759, 1.175186
1196.241, 0.5596920
1196.723, 0.4425430
1197.205, 1.207985
1197.687, 1.740562
1198.169, 1.870163
1198.652, 1.605095
1199.134, 1.374428
1199.616, 1.643173
1200.098, 1.847908
1200.580, 1.331558
1201.062, 0.6909790
1201.544, 1.129555
1202.026, 2.698402
1202.509, 3.192276
1202.991, 2.412392
1203.473, 1.374771
1203.955, 0.2717970
1204.437, 0.3083720
1204.919, 0.5827940
1205.401, 2.107941
1205.883, 2.256920
1206.365, 0.9873050
1206.848, 0.5008160
1207.330, 1.128799
1207.812, 1.801834
1208.294, 1.508759
1208.776, 1.148361
1209.258, 1.639053
1209.740, 2.522652
1210.222, 2.274918
1210.705, 0.8717730
1211.187, 0.2091220
1211.669, 0.6789090
1212.151, 1.341682
1212.633, 1.688843
1213.115, 1.740616
1213.597, 1.261284
1214.079, 0.4937820
1214.562, 0.3872530
1215.044, 0.9309160
1215.526, 1.260223
1216.008, 1.136009
1216.490, 0.9679950
1216.972, 0.9246440
1217.454, 1.113930
1217.936, 1.800720
1218.418, 2.798615
1218.901, 3.144272
1219.383, 2.850403
1219.865, 2.398575
1220.347, 1.876114
1220.829, 1.414383
1221.311, 0.9359510
1221.793, 0.7483750
1222.275, 1.225090
1222.757, 2.202972
1223.240, 2.396896
1223.722, 1.886864
1224.204, 1.658188
1224.686, 2.288383
1225.168, 2.525124
1225.650, 0.7901690
1226.132, 1.002419
1226.614, 1.298431
1227.096, 0.2883300
1227.579, 0.3802640
1228.061, 0.7175220
1228.543, 0.8034210
1229.025, 0.4911420
1229.507, 0.3619920
1229.989, 1.009872
1230.471, 1.756897
1230.953, 2.116028
1231.436, 2.101776
1231.918, 1.708710
1232.400, 1.003044
1232.882, 0.4385830
1233.364, 0.1426320
1233.846, 0.1287770
1234.328, 1.126221
1234.810, 1.707199
1235.292, 0.3772350
1235.775, 2.419212
1236.257, 2.870445
1236.739, 1.354301
1237.221, 0.1175690
1237.703, 0.7354810
1238.185, 1.054153
1238.667, 1.092506
1239.149, 1.097359
1239.632, 1.305344
1240.114, 1.624924
1240.596, 1.463280
1241.078, 0.9626920
1241.560, 0.6080250
1242.042, 0.5020220
1242.524, 0.7564160
1243.006, 1.660599
1243.489, 2.554283
1243.971, 2.873390
1244.453, 2.759949
1244.935, 2.837143
1245.417, 2.983330
1245.899, 2.879440
1246.381, 1.776955
1246.863, 1.345284
1247.345, 2.168518
1247.828, 3.021317
1248.310, 2.558701
1248.792, 1.418465
1249.274, 1.398758
1249.756, 2.291550
1250.238, 2.938538
1250.720, 2.985970
1251.202, 2.552269
1251.684, 1.384155
1252.167, 0.3885880
1252.649, 0.5072940
1253.131, 1.224457
1253.613, 1.657211
1254.095, 1.893486
1254.577, 2.098991
1255.059, 2.548470
1255.541, 2.526360
1256.023, 1.863197
1256.506, 1.210213
1256.988, 1.275406
1257.470, 1.632713
1257.952, 1.595833
1258.434, 1.290794
1258.916, 1.192001
1259.398, 1.363113
1259.880, 1.723686
1260.363, 2.342529
1260.845, 2.798096
1261.327, 2.518150
1261.809, 2.065178
1262.291, 1.951675
1262.773, 2.190346
1263.255, 2.787560
1263.737, 4.016449
1264.219, 4.020142
1264.702, 2.641769
1265.184, 1.469460
1265.666, 1.800728
1266.148, 2.315842
1266.630, 1.800781
1267.112, 0.7988130
1267.594, 0.5366670
1268.076, 1.074829
1268.559, 1.611481
1269.041, 1.805199
1269.523, 1.530830
1270.005, 0.7773440
1270.487, 0.2696990
1270.969, 1.198143
1271.451, 2.462776
1271.933, 2.341354
1272.416, 0.9898990
1272.898, 0.3499980
1273.380, 0.4979170
1273.862, 0.9848020
1274.344, 2.320358
1274.826, 2.918724
1275.308, 1.833855
1275.790, 0.2839510
1276.272, 0.1197130
1276.755, 0.3228380
1277.237, 0.5421750
1277.719, 0.5008090
1278.201, 0.3676380
1278.683, 7.1419001E-02
1279.165, 0.1990740
1279.647, 0.1790540
1280.129, 0.7120970
1280.611, 0.8987580
1281.094, 0.9763490
1281.576, 1.471092
1282.058, 2.329109
1282.540, 3.161072
1283.022, 4.141602
1283.504, 4.504051
1283.986, 4.063454
1284.468, 3.357193
1284.950, 2.848328
1285.433, 2.449966
1285.915, 1.895172
1286.397, 1.298698
1286.879, 1.246727
1287.361, 2.010460
1287.843, 2.258087
1288.325, 1.826660
1288.807, 1.326218
1289.290, 1.058388
1289.772, 1.160057
1290.254, 2.118011
1290.736, 3.227692
1291.218, 3.103210
1291.700, 1.504456
1292.182, 0.9940800
1292.664, 1.738022
1293.146, 2.451492
1293.629, 2.124619
1294.111, 1.630325
1294.593, 1.457039
1295.075, 1.404701
1295.557, 1.148338
1296.039, 0.7564770
1296.521, 0.9579770
1297.003, 1.684975
1297.486, 2.026558
1297.968, 1.005371
1298.450, 0.2036510
1298.932, 5.9372000E-02
1299.414, 0.1530300
1299.896, 1.213188
1300.378, 2.585861
1300.860, 2.292984
1301.343, 0.8800660
1301.825, 0.0000000E+00
##END=



