##NAMES=Clinohumite
##RRUFFID=R060559
##IDEAL CHEMISTRY=Mg_9_(SiO_4_)_4_F_2_
##LOCALITY=Tadjikistan
##OWNER=RRUFF
##SOURCE=Gemological Institute of America
##DESCRIPTION=Yellowish-brown fragment
##STATUS=The identification of this mineral has been confirmed by X-ray diffraction and chemical analysis
##URL=rruff.info/R060559
##MEASURED CHEMISTRY=(Mg_8.51_Ti_0.24_[box]_0.24_Fe_0.01_)_Σ=9_(Si_1.00_O_4_)_4_(F_1.30_(OH)_0.70_)_Σ=2_ ; OH by difference and stoichiometry
89.78320, 0.0000000E+00
90.26532, 0.3890690
90.74744, 2.863434
91.22955, 6.234711
91.71167, 11.68634
92.19379, 23.57230
92.67590, 40.54584
93.15802, 53.20987
93.64014, 51.91983
94.12225, 40.91095
94.60437, 32.99713
95.08649, 31.60950
95.56860, 33.19839
96.05072, 33.43231
96.53284, 33.40866
97.01495, 34.06976
97.49707, 33.81290
97.97919, 30.87497
98.46130, 25.57220
98.94342, 19.15646
99.42554, 13.11115
99.90765, 11.00375
100.3898, 14.36636
100.8719, 19.66489
101.3540, 20.70093
101.8361, 16.67377
102.3182, 11.91931
102.8004, 7.545746
103.2825, 3.375610
103.7646, 0.4255980
104.2467, 1.130249
104.7288, 1.590820
105.2109, 1.402496
105.6931, 1.328308
106.1752, 0.2786250
106.6573, 4.227966
107.1394, 11.56561
107.6215, 19.40787
108.1036, 30.24481
108.5858, 42.73608
109.0679, 48.17426
109.5500, 41.16287
110.0321, 30.94971
110.5142, 22.61261
110.9963, 16.16562
111.4785, 11.62042
111.9606, 9.807678
112.4427, 10.61487
112.9248, 11.61624
113.4069, 12.11490
113.8890, 12.95752
114.3712, 14.06165
114.8533, 14.73407
115.3354, 16.41171
115.8175, 20.44034
116.2996, 27.27402
116.7817, 32.58002
117.2639, 33.46579
117.7460, 32.58832
118.2281, 33.64975
118.7102, 39.87851
119.1923, 44.97833
119.6744, 46.33875
120.1566, 42.48062
120.6387, 38.61829
121.1208, 38.26071
121.6029, 39.55042
122.0850, 40.67319
122.5671, 38.52164
123.0493, 36.01062
123.5314, 37.03201
124.0135, 43.82486
124.4956, 50.12521
124.9777, 49.01233
125.4598, 41.87527
125.9420, 33.93839
126.4241, 27.93002
126.9062, 23.50208
127.3883, 20.05811
127.8704, 17.53314
128.3525, 15.85422
128.8347, 15.10062
129.3168, 15.24597
129.7989, 15.76877
130.2810, 16.37708
130.7631, 17.04617
131.2452, 17.83405
131.7274, 19.17120
132.2095, 20.44427
132.6916, 19.67355
133.1737, 16.64499
133.6558, 13.04135
134.1379, 10.38077
134.6201, 8.656158
135.1022, 7.265381
135.5843, 6.121857
136.0664, 5.194092
136.5485, 4.101410
137.0306, 2.644318
137.5128, 1.507843
137.9949, 1.397156
138.4770, 2.286072
138.9591, 4.441620
139.4412, 8.617432
139.9233, 15.05478
140.4055, 19.60446
140.8876, 22.30341
141.3697, 23.04626
141.8518, 21.35663
142.3339, 16.31543
142.8160, 10.93576
143.2982, 6.205566
143.7803, 2.107208
144.2624, 1.144104
144.7445, 3.392914
145.2266, 4.830750
145.7087, 5.900085
146.1909, 6.886444
146.6730, 7.155182
147.1551, 6.285522
147.6372, 2.056702
148.1193, 0.6050720
148.6014, 1.020538
149.0836, 0.2247010
149.5657, 1.084534
150.0478, 1.344757
150.5299, 1.388306
151.0120, 1.375549
151.4941, 1.833344
151.9763, 1.639618
152.4584, 0.1851810
152.9405, 2.169800
153.4226, 3.658478
153.9047, 2.563477
154.3868, 1.586517
154.8690, 2.192841
155.3511, 6.873016
155.8332, 10.66486
156.3153, 12.71484
156.7974, 13.10602
157.2795, 12.73190
157.7617, 10.66455
158.2438, 8.547852
158.7259, 7.538055
159.2080, 9.219971
159.6901, 10.73279
160.1722, 10.65817
160.6544, 9.111694
161.1365, 8.729858
161.6186, 11.99332
162.1007, 16.24054
162.5828, 19.15726
163.0649, 18.74948
163.5471, 17.88147
164.0292, 18.00320
164.5113, 19.14859
164.9934, 20.37280
165.4755, 20.86542
165.9576, 21.16409
166.4398, 21.89539
166.9219, 23.33649
167.4040, 25.34372
167.8861, 27.94247
168.3682, 31.14996
168.8503, 34.36264
169.3325, 37.36420
169.8146, 40.11972
170.2967, 42.51688
170.7788, 45.14059
171.2609, 47.06586
171.7430, 47.41302
172.2252, 46.11612
172.7073, 43.61826
173.1894, 39.25351
173.6715, 33.87198
174.1536, 29.47018
174.6357, 27.26874
175.1179, 26.34149
175.6000, 25.69659
176.0821, 25.27557
176.5642, 24.98105
177.0463, 24.52710
177.5284, 24.07104
178.0106, 24.08459
178.4927, 25.23187
178.9748, 26.92899
179.4569, 28.08286
179.9390, 28.52289
180.4211, 28.77097
180.9033, 29.17035
181.3854, 29.82809
181.8675, 31.17740
182.3496, 33.86353
182.8317, 37.40247
183.3138, 40.85669
183.7960, 44.08188
184.2781, 47.20032
184.7602, 50.44913
185.2423, 53.80743
185.7244, 56.78476
186.2065, 59.41647
186.6887, 61.52188
187.1708, 62.58118
187.6529, 62.65265
188.1350, 61.41672
188.6171, 58.06433
189.0992, 52.60330
189.5814, 46.16150
190.0635, 38.95508
190.5456, 31.09171
191.0277, 23.85959
191.5098, 17.23157
191.9919, 11.43893
192.4741, 7.196808
192.9562, 4.542755
193.4383, 2.813263
193.9204, 1.565063
194.4025, 0.8111270
194.8846, 1.026031
195.3668, 2.501038
195.8489, 4.770355
196.3310, 6.529388
196.8131, 7.700836
197.2952, 9.292480
197.7773, 12.02185
198.2595, 15.84680
198.7416, 19.90805
199.2237, 24.00006
199.7058, 28.29559
200.1879, 33.18796
200.6700, 38.74991
201.1522, 44.77707
201.6343, 51.36789
202.1164, 58.60452
202.5985, 65.17682
203.0806, 70.97690
203.5627, 76.01105
204.0449, 80.01935
204.5270, 82.90689
205.0091, 85.33273
205.4912, 88.14105
205.9733, 91.48981
206.4554, 93.30682
206.9376, 92.94604
207.4197, 90.90710
207.9018, 89.00305
208.3839, 87.24625
208.8660, 85.65390
209.3481, 84.08719
209.8303, 82.42355
210.3124, 81.79034
210.7945, 82.84995
211.2766, 84.90823
211.7587, 85.53265
212.2408, 84.83170
212.7230, 82.50177
213.2051, 78.18652
213.6872, 71.50293
214.1693, 63.71268
214.6514, 54.61761
215.1335, 44.50040
215.6157, 34.93051
216.0978, 25.49701
216.5799, 17.20422
217.0620, 10.77057
217.5441, 6.668030
218.0262, 2.992859
218.5084, 0.5877080
218.9905, 3.918030
219.4726, 6.033478
219.9547, 6.527557
220.4368, 6.526611
220.9189, 6.809265
221.4011, 7.694031
221.8832, 7.976440
222.3653, 7.491760
222.8474, 6.324463
223.3295, 4.777527
223.8116, 2.899963
224.2938, 0.6485600
224.7759, 2.000122
225.2580, 5.011414
225.7401, 8.439880
226.2222, 12.37970
226.7043, 16.73120
227.1865, 21.28784
227.6686, 25.74182
228.1507, 30.68542
228.6328, 36.49713
229.1149, 43.63904
229.5970, 50.47449
230.0792, 56.53595
230.5613, 62.22180
231.0434, 68.92822
231.5255, 77.05731
232.0076, 85.48865
232.4897, 93.58386
232.9719, 101.3992
233.4540, 108.7430
233.9361, 115.6259
234.4182, 122.0831
234.9003, 128.4073
235.3824, 134.9728
235.8646, 140.8751
236.3467, 145.5496
236.8288, 148.3040
237.3109, 151.4428
237.7930, 155.6534
238.2751, 160.1866
238.7573, 162.6207
239.2394, 162.4791
239.7215, 160.8835
240.2036, 158.2068
240.6857, 153.9973
241.1678, 149.7767
241.6500, 146.0847
242.1321, 142.2466
242.6142, 136.3162
243.0963, 127.2849
243.5784, 117.6591
244.0605, 108.3621
244.5427, 98.83795
245.0248, 90.99207
245.5069, 85.24530
245.9890, 81.00208
246.4711, 76.93658
246.9532, 72.44684
247.4354, 69.09106
247.9175, 67.54688
248.3996, 68.12970
248.8817, 69.48053
249.3638, 71.52875
249.8459, 74.39771
250.3281, 78.45416
250.8102, 84.41205
251.2923, 90.34497
251.7744, 95.49609
252.2565, 99.36145
252.7386, 104.4376
253.2208, 111.4618
253.7029, 119.1477
254.1850, 125.5947
254.6671, 130.3870
255.1492, 134.7573
255.6313, 139.0653
256.1135, 143.3552
256.5956, 147.1403
257.0777, 150.4703
257.5598, 153.1700
258.0419, 154.9736
258.5240, 155.7703
259.0062, 155.8342
259.4883, 155.1597
259.9704, 153.7255
260.4525, 151.9174
260.9346, 149.7330
261.4167, 147.2052
261.8989, 144.3257
262.3810, 141.0178
262.8631, 137.6590
263.3452, 134.4470
263.8273, 131.3519
264.3094, 127.8553
264.7916, 123.8787
265.2737, 119.5938
265.7558, 115.0126
266.2379, 110.0027
266.7200, 105.2898
267.2021, 101.1786
267.6843, 97.55396
268.1664, 93.00885
268.6485, 87.20905
269.1306, 81.18451
269.6127, 75.87695
270.0948, 71.43158
270.5770, 67.07312
271.0591, 62.71155
271.5412, 58.36163
272.0233, 53.94867
272.5054, 49.44128
272.9875, 45.10272
273.4697, 41.23523
273.9518, 37.89832
274.4339, 34.33728
274.9160, 30.24261
275.3981, 26.01129
275.8802, 22.81311
276.3624, 20.80115
276.8445, 19.29883
277.3266, 17.98077
277.8087, 16.89343
278.2908, 16.23639
278.7729, 16.14160
279.2551, 16.31683
279.7372, 16.01831
280.2193, 15.15778
280.7014, 14.65027
281.1835, 15.18945
281.6656, 16.75983
282.1478, 18.03143
282.6299, 18.91144
283.1120, 19.43152
283.5941, 19.44012
284.0762, 18.89758
284.5583, 18.68646
285.0405, 19.47595
285.5226, 21.12555
286.0047, 22.22119
286.4868, 22.67261
286.9689, 22.80957
287.4510, 22.91052
287.9332, 22.99652
288.4153, 23.45685
288.8974, 24.54193
289.3795, 26.11945
289.8616, 27.65948
290.3438, 29.13104
290.8259, 30.71393
291.3080, 32.84534
291.7901, 35.36310
292.2722, 37.42706
292.7543, 38.70319
293.2365, 39.35144
293.7186, 39.68030
294.2007, 39.68488
294.6828, 39.42230
295.1649, 39.01233
295.6470, 38.39026
296.1292, 37.29065
296.6113, 35.51477
297.0934, 33.39087
297.5755, 31.23853
298.0576, 29.08472
298.5397, 27.29370
299.0219, 26.25299
299.5040, 25.74530
299.9861, 25.29517
300.4682, 24.76794
300.9503, 24.37421
301.4324, 24.13708
301.9146, 24.17322
302.3967, 24.95032
302.8788, 27.13409
303.3609, 30.12982
303.8430, 33.13068
304.3251, 36.08472
304.8073, 38.81183
305.2894, 41.11365
305.7715, 43.05585
306.2536, 44.86792
306.7357, 46.94318
307.2178, 48.76898
307.7000, 49.77570
308.1821, 49.88702
308.6642, 49.40015
309.1463, 48.24377
309.6284, 46.67371
310.1105, 45.07349
310.5927, 43.37799
311.0748, 41.89221
311.5569, 40.98706
312.0390, 40.66071
312.5211, 40.18146
313.0032, 38.62561
313.4854, 36.89160
313.9675, 35.95703
314.4496, 35.86707
314.9317, 36.91388
315.4138, 39.51288
315.8959, 43.52136
316.3781, 48.08295
316.8602, 52.86346
317.3423, 57.99982
317.8244, 63.60638
318.3065, 69.95502
318.7886, 76.41766
319.2708, 82.78607
319.7529, 89.07837
320.2350, 95.37030
320.7171, 102.5311
321.1992, 108.9785
321.6813, 113.8994
322.1635, 116.9641
322.6456, 118.9869
323.1277, 120.2556
323.6098, 120.5457
324.0919, 119.4809
324.5740, 115.7147
325.0562, 111.7676
325.5383, 108.5803
326.0204, 106.5898
326.5025, 103.7454
326.9846, 98.81812
327.4667, 93.44391
327.9489, 89.30450
328.4310, 87.84839
328.9131, 86.03766
329.3952, 83.43085
329.8773, 80.02448
330.3594, 76.15881
330.8416, 71.44421
331.3237, 66.65289
331.8058, 62.32886
332.2879, 58.50287
332.7700, 55.09790
333.2521, 52.32526
333.7343, 49.96423
334.2164, 46.90564
334.6985, 42.90375
335.1806, 38.63416
335.6627, 34.35974
336.1448, 29.97729
336.6270, 26.05444
337.1091, 22.79669
337.5912, 19.91046
338.0733, 16.54834
338.5554, 12.37537
339.0375, 8.945923
339.5197, 7.198059
340.0018, 7.281250
340.4839, 6.531616
340.9660, 4.772400
341.4481, 2.613831
341.9302, 0.8016360
342.4124, 0.6825560
342.8945, 1.854248
343.3766, 2.732056
343.8587, 3.255066
344.3408, 3.087036
344.8229, 2.088440
345.3051, 1.125305
345.7872, 1.403259
346.2693, 2.713684
346.7514, 3.291809
347.2335, 2.523987
347.7156, 1.054260
348.1978, 0.2185670
348.6799, 5.0415002E-02
349.1620, 0.4689940
349.6441, 1.694702
350.1262, 3.273621
350.6083, 4.195129
351.0905, 4.249695
351.5726, 4.039795
352.0547, 4.220276
352.5368, 4.709717
353.0189, 5.240540
353.5010, 5.454285
353.9832, 5.713806
354.4653, 6.708191
354.9474, 8.507996
355.4295, 10.03809
355.9116, 10.46417
356.3937, 10.10657
356.8759, 9.415833
357.3580, 8.033264
357.8401, 6.797241
358.3222, 6.407837
358.8043, 6.744629
359.2864, 7.136353
359.7686, 7.346497
360.2507, 7.392334
360.7328, 7.230347
361.2149, 6.482300
361.6970, 6.135437
362.1791, 6.914124
362.6613, 8.386353
363.1434, 9.564575
363.6255, 9.680115
364.1076, 9.783569
364.5897, 10.33997
365.0718, 11.43451
365.5540, 12.85504
366.0361, 14.86945
366.5182, 17.08923
367.0003, 19.04980
367.4824, 21.17847
367.9645, 22.56207
368.4467, 22.64697
368.9288, 21.36646
369.4109, 20.73334
369.8930, 21.16028
370.3751, 21.93469
370.8572, 22.55688
371.3394, 22.61200
371.8215, 23.25909
372.3036, 24.92230
372.7857, 27.22858
373.2678, 28.83508
373.7499, 29.49969
374.2321, 29.89453
374.7142, 30.28680
375.1963, 30.65167
375.6784, 31.05237
376.1605, 31.39282
376.6426, 31.88373
377.1248, 33.16125
377.6069, 35.51862
378.0890, 36.90723
378.5711, 36.31781
379.0532, 34.06909
379.5353, 32.71893
380.0175, 32.43842
380.4996, 32.11963
380.9817, 30.51093
381.4638, 27.78558
381.9459, 25.27649
382.4280, 23.30493
382.9102, 21.66010
383.3923, 19.93640
383.8744, 18.14545
384.3565, 16.64020
384.8386, 15.76941
385.3207, 15.32434
385.8029, 14.90387
386.2850, 14.42731
386.7671, 14.13477
387.2492, 14.32715
387.7313, 14.88873
388.2134, 15.56769
388.6956, 16.40741
389.1777, 17.21460
389.6598, 17.74402
390.1419, 18.01776
390.6240, 18.36639
391.1061, 19.14349
391.5883, 20.04572
392.0704, 20.73132
392.5525, 20.83765
393.0346, 21.09760
393.5167, 22.20490
393.9988, 23.77448
394.4810, 24.72711
394.9631, 24.42682
395.4452, 23.61914
395.9273, 22.59784
396.4094, 21.29077
396.8915, 20.10547
397.3737, 19.32141
397.8558, 18.62268
398.3379, 17.61945
398.8200, 16.14313
399.3021, 14.47809
399.7842, 12.65106
400.2664, 10.65253
400.7485, 8.489471
401.2306, 6.005768
401.7127, 3.530548
402.1948, 1.236908
402.6769, 1.076630
403.1591, 2.699493
403.6412, 3.369965
404.1233, 3.468597
404.6054, 3.926147
405.0875, 4.800476
405.5696, 5.720306
406.0518, 6.749847
406.5339, 7.922821
407.0160, 7.996246
407.4981, 6.770966
407.9802, 4.975861
408.4623, 3.367432
408.9445, 1.932739
409.4266, 0.5807190
409.9087, 0.6269840
410.3908, 1.850403
410.8729, 3.450226
411.3550, 5.434326
411.8372, 7.672852
412.3193, 10.26486
412.8014, 13.04541
413.2835, 15.59641
413.7656, 17.82190
414.2477, 20.02512
414.7299, 22.54269
415.2120, 25.28021
415.6941, 27.95963
416.1762, 30.40079
416.6583, 32.76874
417.1404, 35.03790
417.6226, 37.24231
418.1047, 39.89481
418.5868, 43.79526
419.0689, 48.05252
419.5510, 51.86508
420.0331, 54.76627
420.5153, 57.48676
420.9974, 60.16083
421.4795, 62.83908
421.9616, 65.55618
422.4437, 68.02649
422.9258, 70.83582
423.4080, 74.34869
423.8901, 78.89398
424.3722, 83.17365
424.8543, 86.70239
425.3364, 90.12881
425.8185, 94.09467
426.3007, 99.29529
426.7828, 104.0814
427.2649, 108.0589
427.7470, 111.3618
428.2291, 115.0430
428.7112, 119.3665
429.1934, 123.5537
429.6755, 127.2905
430.1576, 130.5638
430.6397, 133.2687
431.1218, 135.2922
431.6039, 136.9060
432.0861, 138.8552
432.5682, 141.2306
433.0503, 142.3778
433.5324, 141.4642
434.0145, 138.9537
434.4966, 136.3713
434.9788, 133.7257
435.4609, 130.9637
435.9430, 127.5052
436.4251, 123.8796
436.9072, 121.7688
437.3893, 121.9507
437.8715, 122.4070
438.3536, 120.2184
438.8357, 116.3300
439.3178, 113.3728
439.7999, 113.7372
440.2820, 115.0549
440.7642, 115.2433
441.2463, 114.1207
441.7284, 112.3461
442.2105, 109.7645
442.6926, 106.9792
443.1747, 104.5979
443.6569, 103.1512
444.1390, 101.6504
444.6211, 99.61832
445.1032, 97.23749
445.5853, 95.13379
446.0674, 94.22241
446.5496, 93.02338
447.0317, 90.86368
447.5138, 87.23016
447.9959, 84.17575
448.4780, 82.07697
448.9601, 80.19760
449.4423, 77.76328
449.9244, 74.72025
450.4065, 71.53262
450.8886, 67.94611
451.3707, 64.32773
451.8528, 62.18649
452.3350, 61.76453
452.8171, 61.92084
453.2992, 61.88840
453.7813, 61.66754
454.2634, 62.81924
454.7455, 65.80762
455.2277, 68.78687
455.7098, 68.90936
456.1919, 66.55276
456.6740, 64.57910
457.1561, 64.12469
457.6382, 64.53119
458.1204, 64.91779
458.6025, 65.22440
459.0846, 65.16394
459.5667, 64.64233
460.0488, 63.56827
460.5309, 61.66086
461.0131, 58.76166
461.4952, 55.92603
461.9773, 54.01410
462.4594, 52.62830
462.9415, 51.17215
463.4236, 49.63416
463.9058, 47.79349
464.3879, 45.26767
464.8700, 42.24939
465.3521, 39.78391
465.8342, 38.64575
466.3163, 37.75760
466.7985, 36.43561
467.2806, 33.78424
467.7627, 32.25119
468.2448, 32.40640
468.7269, 33.47809
469.2090, 34.43127
469.6912, 35.41354
470.1733, 35.98950
470.6554, 35.92841
471.1375, 35.28159
471.6196, 34.61649
472.1017, 33.74661
472.5839, 33.37607
473.0660, 34.49081
473.5481, 37.11185
474.0302, 38.06516
474.5123, 36.80313
474.9944, 34.66339
475.4766, 33.40247
475.9587, 32.97513
476.4408, 33.08948
476.9229, 33.93875
477.4050, 35.08344
477.8871, 35.71304
478.3693, 35.89023
478.8514, 36.14392
479.3335, 36.60782
479.8156, 37.46622
480.2977, 39.10410
480.7798, 41.86404
481.2620, 44.41376
481.7441, 45.76410
482.2262, 46.44684
482.7083, 47.24805
483.1904, 49.20041
483.6725, 50.55161
484.1547, 50.69867
484.6368, 49.64145
485.1189, 47.68918
485.6010, 44.21869
486.0831, 40.34961
486.5652, 36.63202
487.0474, 32.90082
487.5295, 29.64902
488.0116, 27.17163
488.4937, 24.99158
488.9758, 22.32678
489.4579, 18.88171
489.9401, 15.83630
490.4222, 13.45697
490.9043, 11.68851
491.3864, 10.32184
491.8685, 9.429443
492.3506, 8.400421
492.8328, 6.622070
493.3149, 4.308075
493.7970, 2.400421
494.2791, 0.9860530
494.7612, 0.1127320
495.2433, 1.018127
495.7255, 1.774750
496.2076, 2.496399
496.6897, 3.044281
497.1718, 3.742981
497.6539, 5.306000
498.1360, 7.402161
498.6182, 8.776215
499.1003, 8.052582
499.5824, 6.847748
500.0645, 6.320923
500.5466, 6.738342
501.0287, 7.196686
501.5109, 7.687683
501.9930, 7.985901
502.4751, 7.859344
502.9572, 6.512909
503.4393, 5.671448
503.9214, 5.785248
504.4036, 6.561005
504.8857, 7.010162
505.3678, 7.203918
505.8499, 6.930206
506.3320, 5.874878
506.8141, 3.927765
507.2963, 2.875061
507.7784, 2.857452
508.2605, 3.320892
508.7426, 3.898865
509.2247, 4.557800
509.7068, 4.721558
510.1890, 4.161530
510.6711, 3.296631
511.1532, 2.804382
511.6353, 2.635803
512.1174, 2.560181
512.5995, 2.935455
513.0817, 3.083008
513.5638, 1.867096
514.0459, 0.6600650
514.5280, 3.021118
515.0101, 4.231567
515.4922, 4.870331
515.9744, 5.438019
516.4565, 5.998291
516.9386, 6.609314
517.4207, 7.000031
517.9028, 7.516357
518.3849, 8.722717
518.8671, 11.44742
519.3492, 14.07504
519.8313, 15.89932
520.3134, 17.03662
520.7955, 19.78860
521.2776, 25.61804
521.7598, 30.90643
522.2419, 33.24448
522.7240, 31.91702
523.2061, 31.53799
523.6882, 32.31238
524.1703, 33.73914
524.6525, 35.29126
525.1346, 36.96536
525.6167, 38.53760
526.0988, 39.81653
526.5809, 41.09650
527.0630, 43.17755
527.5452, 45.87515
528.0273, 48.16190
528.5094, 48.91702
528.9915, 49.21985
529.4736, 50.32748
529.9557, 52.35333
530.4379, 54.66602
530.9200, 57.21890
531.4021, 59.73224
531.8842, 61.95273
532.3663, 63.89905
532.8484, 65.41235
533.3306, 66.23517
533.8127, 66.59784
534.2948, 66.96652
534.7769, 67.80548
535.2590, 68.16626
535.7411, 67.73645
536.2233, 66.54614
536.7054, 65.35583
537.1875, 64.12494
537.6696, 63.01163
538.1517, 62.06970
538.6339, 61.29672
539.1160, 61.03027
539.5981, 61.49310
540.0802, 61.90125
540.5623, 61.05936
541.0444, 59.15924
541.5266, 57.24847
542.0087, 55.50909
542.4908, 54.08301
542.9729, 53.25793
543.4550, 52.96814
543.9371, 52.93347
544.4193, 52.57220
544.9014, 52.67914
545.3835, 54.30157
545.8656, 57.61707
546.3477, 60.39822
546.8298, 61.27859
547.3120, 61.51953
547.7941, 62.15805
548.2762, 63.92276
548.7583, 65.32028
549.2404, 66.70667
549.7225, 67.53094
550.2047, 66.75397
550.6868, 63.77106
551.1689, 60.31998
551.6510, 56.92181
552.1331, 53.41455
552.6152, 48.70465
553.0974, 42.60178
553.5795, 36.34885
554.0616, 30.54062
554.5437, 25.24100
555.0258, 20.75995
555.5079, 17.08209
555.9901, 13.95633
556.4722, 11.36194
556.9543, 9.277893
557.4364, 7.379822
557.9185, 5.349304
558.4006, 3.650635
558.8828, 2.603027
559.3649, 2.182343
559.8470, 2.340515
560.3291, 3.333710
560.8112, 4.755524
561.2933, 6.436523
561.7755, 8.299347
562.2576, 10.13791
562.7397, 11.83264
563.2218, 13.59070
563.7039, 15.58957
564.1860, 18.10577
564.6682, 20.35272
565.1503, 22.08282
565.6324, 23.68610
566.1145, 25.74948
566.5966, 28.36127
567.0787, 30.79483
567.5609, 32.85669
568.0430, 34.81387
568.5251, 37.09564
569.0072, 39.68994
569.4893, 42.42023
569.9714, 44.95877
570.4536, 47.70825
570.9357, 51.21481
571.4178, 55.51077
571.8999, 60.63452
572.3820, 67.25562
572.8641, 74.24167
573.3463, 80.31671
573.8284, 84.71143
574.3105, 89.85306
574.7926, 96.92877
575.2747, 104.9819
575.7568, 112.7759
576.2390, 119.8065
576.7211, 127.2264
577.2032, 135.1336
577.6853, 143.5555
578.1674, 152.3513
578.6495, 161.5598
579.1317, 171.0313
579.6138, 180.6533
580.0959, 190.4669
580.5780, 200.7441
581.0601, 211.5736
581.5422, 222.9018
582.0244, 235.3159
582.5065, 248.2311
582.9886, 259.7557
583.4707, 269.6345
583.9528, 279.2046
584.4349, 289.9735
584.9171, 301.1652
585.3992, 311.6376
585.8813, 321.5480
586.3634, 330.0829
586.8455, 335.7901
587.3276, 339.7491
587.8098, 344.7119
588.2919, 352.8901
588.7740, 360.4229
589.2561, 366.1939
589.7382, 370.1769
590.2203, 373.3110
590.7025, 375.1367
591.1846, 376.8763
591.6667, 379.1832
592.1488, 382.0602
592.6309, 385.6956
593.1130, 390.0718
593.5952, 395.3603
594.0773, 401.7830
594.5594, 409.3391
595.0415, 417.7868
595.5236, 426.9908
596.0057, 437.3785
596.4879, 449.0939
596.9700, 462.2944
597.4521, 477.2425
597.9342, 494.8593
598.4163, 513.6121
598.8984, 532.2696
599.3806, 551.0723
599.8627, 571.7991
600.3448, 596.6232
600.8269, 621.9385
601.3090, 646.0494
601.7911, 668.3155
602.2733, 692.3134
602.7554, 718.7592
603.2375, 745.8826
603.7196, 771.8201
604.2017, 796.7918
604.6838, 820.7249
605.1660, 843.9476
605.6481, 865.7782
606.1302, 885.8896
606.6123, 903.7734
607.0944, 917.0855
607.5765, 925.6732
608.0587, 928.7065
608.5408, 925.9189
609.0229, 916.9702
609.5050, 900.5728
609.9871, 873.5722
610.4692, 841.0088
610.9514, 805.4271
611.4335, 766.6646
611.9156, 725.7919
612.3977, 681.1216
612.8798, 635.7697
613.3619, 592.0027
613.8441, 548.9216
614.3262, 508.3075
614.8083, 470.0045
615.2904, 434.0157
615.7725, 400.9494
616.2546, 370.8547
616.7368, 343.3939
617.2189, 318.3117
617.7010, 295.4822
618.1831, 275.2239
618.6652, 257.3074
619.1473, 240.6365
619.6295, 224.9677
620.1116, 210.2766
620.5937, 196.4961
621.0758, 183.7189
621.5579, 171.9733
622.0400, 161.6254
622.5222, 152.3587
623.0043, 144.1718
623.4864, 137.2023
623.9685, 130.4200
624.4506, 123.5243
624.9327, 116.9196
625.4149, 110.7864
625.8970, 105.0131
626.3791, 100.4127
626.8612, 97.31470
627.3433, 94.90738
627.8254, 92.03357
628.3076, 88.70944
628.7897, 85.60907
629.2718, 82.95676
629.7539, 80.53384
630.2360, 77.92557
630.7181, 75.22180
631.2003, 72.83868
631.6824, 71.32910
632.1645, 69.97882
632.6466, 68.26422
633.1287, 66.20090
633.6108, 64.10718
634.0930, 61.93878
634.5751, 59.89014
635.0572, 57.95523
635.5393, 55.96878
636.0214, 54.95251
636.5035, 55.67929
636.9857, 56.45291
637.4678, 55.67410
637.9499, 52.93079
638.4320, 51.58859
638.9141, 52.30795
639.3962, 53.44540
639.8784, 52.54379
640.3605, 50.03641
640.8426, 47.82538
641.3247, 46.44833
641.8068, 45.63831
642.2889, 45.29144
642.7711, 45.25940
643.2532, 45.19669
643.7353, 44.61621
644.2174, 44.34274
644.6995, 45.11353
645.1816, 46.69525
645.6638, 47.52847
646.1459, 46.38342
646.6280, 45.53912
647.1101, 45.72452
647.5922, 46.97955
648.0743, 48.54807
648.5565, 50.68320
649.0386, 52.79269
649.5207, 54.21686
650.0028, 55.01562
650.4849, 56.13626
650.9670, 57.66077
651.4492, 59.39783
651.9313, 61.05777
652.4134, 62.80029
652.8955, 65.09982
653.3776, 68.58746
653.8597, 71.53226
654.3419, 72.22910
654.8240, 71.68500
655.3061, 71.56503
655.7882, 72.37354
656.2703, 73.73746
656.7524, 75.77609
657.2346, 78.25690
657.7167, 80.57791
658.1988, 82.62271
658.6809, 84.56369
659.1630, 86.54614
659.6451, 88.55313
660.1273, 90.38403
660.6094, 92.07504
661.0915, 93.39011
661.5736, 93.47992
662.0557, 93.19901
662.5378, 94.50342
663.0200, 97.44907
663.5021, 100.4833
663.9842, 103.0388
664.4663, 104.8990
664.9484, 105.6557
665.4305, 104.8456
665.9127, 104.1781
666.3948, 104.6292
666.8769, 105.1584
667.3590, 104.6416
667.8411, 102.2415
668.3232, 100.6360
668.8054, 100.3772
669.2875, 100.7566
669.7696, 100.4786
670.2517, 99.53134
670.7338, 98.45621
671.2159, 97.34811
671.6981, 96.26337
672.1802, 95.54224
672.6623, 94.98035
673.1444, 93.88309
673.6265, 91.01404
674.1086, 88.17630
674.5908, 87.04242
675.0729, 87.33707
675.5550, 87.11459
676.0371, 85.07480
676.5192, 83.02640
677.0013, 81.89288
677.4835, 81.80365
677.9656, 81.32831
678.4477, 80.44107
678.9298, 79.24133
679.4119, 77.57458
679.8940, 75.43860
680.3762, 74.02826
680.8583, 73.44073
681.3404, 73.22577
681.8225, 73.42297
682.3046, 73.57617
682.7867, 72.70682
683.2689, 70.42029
683.7510, 67.69379
684.2331, 64.84756
684.7152, 62.10876
685.1973, 59.77753
685.6794, 58.25562
686.1616, 56.77100
686.6437, 54.92676
687.1258, 53.11237
687.6079, 52.13419
688.0900, 52.40216
688.5721, 52.37607
689.0543, 51.62927
689.5364, 50.34528
690.0185, 49.11765
690.5006, 47.92609
690.9827, 46.50192
691.4648, 44.58655
691.9470, 42.42227
692.4291, 40.40320
692.9112, 38.50507
693.3933, 36.59229
693.8754, 34.22046
694.3575, 32.12146
694.8397, 31.08789
695.3218, 31.31885
695.8039, 30.68292
696.2860, 28.20081
696.7681, 25.48242
697.2502, 23.35168
697.7324, 21.95258
698.2145, 20.41278
698.6966, 18.66699
699.1787, 16.94159
699.6608, 15.55078
700.1429, 14.39014
700.6251, 12.97711
701.1072, 11.19983
701.5893, 9.410217
702.0714, 8.069763
702.5535, 6.907715
703.0356, 5.508972
703.5178, 3.504089
703.9999, 1.606262
704.4820, 0.4735110
704.9641, 0.5008540
705.4462, 2.273499
705.9283, 5.749084
706.4105, 8.624695
706.8926, 10.46918
707.3747, 11.60138
707.8568, 12.76526
708.3389, 13.96149
708.8210, 15.18854
709.3032, 16.39142
709.7853, 17.67767
710.2674, 19.64282
710.7495, 22.01550
711.2316, 23.71039
711.7137, 23.23077
712.1959, 22.64435
712.6780, 23.66229
713.1601, 26.08826
713.6422, 28.32831
714.1243, 30.37842
714.6064, 31.64661
715.0886, 31.63849
715.5707, 30.26044
716.0528, 29.76013
716.5349, 30.21722
717.0170, 31.22711
717.4991, 32.82556
717.9813, 34.87207
718.4634, 36.02814
718.9455, 36.27509
719.4276, 35.77509
719.9097, 34.27692
720.3918, 32.24829
720.8740, 30.51355
721.3561, 29.21613
721.8382, 27.66174
722.3203, 25.21509
722.8024, 22.48584
723.2845, 19.97028
723.7667, 18.19940
724.2488, 15.62842
724.7309, 11.98975
725.2130, 7.738464
725.6951, 3.613281
726.1772, 0.2435300
726.6594, 5.887878
727.1415, 13.74939
727.6236, 22.58441
728.1057, 30.86554
728.5878, 38.81488
729.0699, 47.04645
729.5521, 55.14484
730.0342, 64.59131
730.5163, 76.88898
730.9984, 91.13806
731.4805, 105.7242
731.9626, 118.8125
732.4448, 134.0600
732.9269, 152.5414
733.4090, 173.5027
733.8911, 194.1169
734.3732, 213.6176
734.8553, 234.9412
735.3375, 258.9539
735.8196, 285.4133
736.3017, 314.3074
736.7838, 345.3541
737.2659, 376.8383
737.7480, 407.8160
738.2302, 438.7723
738.7123, 471.1870
739.1944, 504.6041
739.6765, 536.7825
740.1586, 566.2422
740.6407, 595.0156
741.1229, 624.7429
741.6050, 655.4977
742.0871, 680.9223
742.5692, 701.0356
743.0513, 716.2805
743.5334, 726.5161
744.0156, 731.9901
744.4977, 734.3431
744.9798, 733.6296
745.4619, 729.4459
745.9440, 720.4556
746.4261, 708.3400
746.9083, 695.3689
747.3904, 681.7515
747.8725, 665.5031
748.3546, 644.0844
748.8367, 620.9799
749.3188, 598.1603
749.8010, 575.8077
750.2831, 554.8365
750.7652, 536.3937
751.2473, 517.5076
751.7294, 495.2855
752.2115, 469.9124
752.6937, 444.5822
753.1758, 419.4208
753.6579, 394.5475
754.1400, 369.7007
754.6221, 345.3004
755.1042, 322.0953
755.5864, 300.8727
756.0685, 279.0638
756.5506, 253.9862
757.0327, 228.3867
757.5148, 205.5673
757.9969, 187.3441
758.4791, 169.3057
758.9612, 151.5630
759.4433, 133.8263
759.9254, 115.6063
760.4075, 96.70837
760.8896, 79.30225
761.3718, 63.55615
761.8539, 49.68921
762.3360, 38.57642
762.8181, 29.53870
763.3002, 21.07434
763.7823, 12.44006
764.2645, 4.564209
764.7466, 2.683716
765.2287, 8.550659
765.7108, 11.93799
766.1929, 12.05457
766.6750, 10.58093
767.1572, 8.373291
767.6393, 4.136597
768.1214, 5.047119
768.6035, 19.37903
769.0856, 35.68933
769.5677, 53.04175
770.0499, 72.94006
770.5320, 97.48474
771.0141, 126.2542
771.4962, 158.4237
771.9783, 193.2549
772.4604, 232.0339
772.9426, 274.3229
773.4247, 320.9648
773.9068, 373.3953
774.3889, 432.1445
774.8710, 495.9961
775.3531, 564.9596
775.8353, 638.7524
776.3174, 716.3979
776.7995, 797.1069
777.2816, 885.0050
777.7637, 982.3608
778.2458, 1086.897
778.7280, 1195.556
779.2101, 1308.659
779.6922, 1424.826
780.1743, 1547.694
780.6564, 1670.881
781.1385, 1795.517
781.6207, 1919.931
782.1028, 2034.181
782.5849, 2141.794
783.0670, 2236.047
783.5491, 2317.822
784.0313, 2384.074
784.5134, 2426.256
784.9955, 2444.690
785.4776, 2434.252
785.9597, 2389.547
786.4418, 2316.609
786.9240, 2223.007
787.4061, 2109.546
787.8882, 1979.116
788.3703, 1826.681
788.8524, 1666.790
789.3345, 1503.867
789.8167, 1338.809
790.2988, 1184.164
790.7809, 1037.773
791.2630, 903.8953
791.7451, 782.3113
792.2272, 674.4641
792.7094, 577.1470
793.1915, 491.1331
793.6736, 416.5487
794.1557, 356.5634
794.6378, 307.0122
795.1199, 263.7540
795.6021, 227.3773
796.0842, 198.2493
796.5663, 177.1281
797.0484, 163.2025
797.5305, 157.0731
798.0126, 158.2898
798.4948, 165.0917
798.9769, 177.9481
799.4590, 195.2501
799.9411, 215.8173
800.4232, 240.3407
800.9053, 270.7196
801.3875, 306.7854
801.8696, 346.5947
802.3517, 390.6086
802.8338, 437.3746
803.3159, 485.7830
803.7980, 535.6990
804.2802, 585.5374
804.7623, 638.2258
805.2444, 686.9785
805.7265, 729.2207
806.2086, 765.1895
806.6907, 797.4336
807.1729, 826.3235
807.6550, 850.1307
808.1371, 869.4072
808.6192, 882.7186
809.1013, 884.9126
809.5834, 876.9971
810.0656, 864.7087
810.5477, 849.5901
811.0298, 832.9116
811.5119, 814.1750
811.9940, 794.0005
812.4761, 776.5791
812.9583, 763.5906
813.4404, 752.0168
813.9225, 739.8696
814.4046, 728.3331
814.8867, 723.7244
815.3688, 726.0946
815.8510, 734.8632
816.3331, 749.5569
816.8152, 770.6514
817.2973, 798.2834
817.7794, 832.6650
818.2615, 874.5940
818.7437, 924.4001
819.2258, 981.2700
819.7079, 1045.050
820.1900, 1116.482
820.6721, 1194.673
821.1542, 1278.843
821.6364, 1372.061
822.1185, 1475.173
822.6006, 1587.715
823.0827, 1715.219
823.5648, 1856.483
824.0469, 2010.512
824.5291, 2178.296
825.0112, 2357.065
825.4933, 2549.744
825.9754, 2753.391
826.4575, 2960.859
826.9396, 3175.413
827.4218, 3387.264
827.9039, 3595.733
828.3860, 3799.215
828.8681, 3989.383
829.3502, 4171.168
829.8323, 4321.120
830.3145, 4434.803
830.7966, 4508.401
831.2787, 4535.211
831.7608, 4515.952
832.2429, 4452.298
832.7250, 4330.643
833.2072, 4178.517
833.6893, 3998.258
834.1714, 3798.718
834.6535, 3601.956
835.1356, 3402.080
835.6177, 3217.628
836.0999, 3046.791
836.5820, 2895.873
837.0641, 2776.954
837.5462, 2689.682
838.0283, 2630.065
838.5104, 2599.639
838.9926, 2590.860
839.4747, 2595.361
839.9568, 2615.380
840.4389, 2655.218
840.9210, 2726.515
841.4031, 2806.069
841.8853, 2889.813
842.3674, 2977.727
842.8495, 3071.626
843.3316, 3174.026
843.8137, 3270.828
844.2958, 3362.027
844.7780, 3441.007
845.2601, 3500.385
845.7422, 3539.169
846.2243, 3556.652
846.7064, 3552.822
847.1885, 3527.416
847.6707, 3475.092
848.1528, 3403.504
848.6349, 3320.064
849.1170, 3216.620
849.5991, 3119.303
850.0812, 3027.652
850.5634, 2943.818
851.0455, 2867.081
851.5276, 2798.615
852.0097, 2744.778
852.4918, 2705.836
852.9739, 2684.908
853.4561, 2683.880
853.9382, 2702.551
854.4203, 2740.888
854.9024, 2799.196
855.3845, 2876.895
855.8666, 2971.767
856.3488, 3089.609
856.8309, 3232.994
857.3130, 3403.966
857.7951, 3595.182
858.2772, 3806.181
858.7593, 4028.437
859.2415, 4263.775
859.7236, 4500.420
860.2057, 4733.363
860.6878, 4960.375
861.1699, 5143.933
861.6520, 5288.872
862.1342, 5367.389
862.6163, 5357.538
863.0984, 5262.930
863.5805, 5101.020
864.0626, 4861.440
864.5447, 4587.111
865.0269, 4292.396
865.5090, 3982.280
865.9911, 3676.653
866.4732, 3378.701
866.9553, 3100.314
867.4374, 2852.551
867.9196, 2626.533
868.4017, 2421.635
868.8838, 2237.485
869.3659, 2074.925
869.8480, 1938.161
870.3301, 1815.410
870.8123, 1702.315
871.2944, 1600.071
871.7765, 1512.073
872.2586, 1438.770
872.7407, 1373.299
873.2228, 1313.223
873.7050, 1260.344
874.1871, 1217.933
874.6692, 1184.196
875.1513, 1154.550
875.6334, 1130.700
876.1155, 1107.698
876.5977, 1085.755
877.0798, 1063.273
877.5619, 1037.641
878.0440, 1008.914
878.5261, 976.9075
879.0082, 941.3805
879.4904, 901.7838
879.9725, 855.5957
880.4546, 804.5861
880.9367, 751.5730
881.4188, 695.8716
881.9009, 641.5057
882.3831, 589.1779
882.8652, 538.7894
883.3473, 491.3450
883.8294, 446.1606
884.3115, 404.3588
884.7936, 366.0255
885.2758, 330.5754
885.7579, 297.6617
886.2400, 267.2050
886.7221, 239.0436
887.2042, 213.3462
887.6863, 189.2594
888.1685, 165.9698
888.6506, 143.9030
889.1327, 123.5475
889.6148, 104.8829
890.0969, 87.48096
890.5790, 70.88538
891.0612, 55.66992
891.5433, 42.46252
892.0254, 30.85315
892.5075, 19.59070
892.9896, 8.672852
893.4717, 1.176880
893.9539, 8.964233
894.4360, 16.27026
894.9181, 24.60364
895.4002, 33.68445
895.8823, 40.84290
896.3644, 45.91113
896.8466, 49.24182
897.3287, 50.36670
897.8108, 50.38989
898.2929, 52.90369
898.7750, 57.39709
899.2571, 60.84229
899.7393, 61.83020
900.2214, 61.65405
900.7035, 60.99927
901.1856, 59.98499
901.6677, 58.75342
902.1498, 58.29846
902.6320, 56.17932
903.1141, 51.60815
903.5962, 46.16577
904.0783, 42.08887
904.5604, 39.26135
905.0425, 36.39490
905.5247, 33.48682
906.0068, 29.35095
906.4889, 22.04614
906.9710, 13.31360
907.4531, 5.184937
907.9352, 1.707642
908.4174, 9.402466
908.8995, 18.27588
909.3816, 27.96362
909.8637, 38.40112
910.3458, 49.67334
910.8279, 60.38611
911.3101, 70.53210
911.7922, 80.24915
912.2743, 90.55884
912.7564, 99.84985
913.2385, 106.4434
913.7206, 110.3350
914.2028, 112.1284
914.6849, 111.8655
915.1670, 109.4709
915.6491, 104.4167
916.1312, 97.37842
916.6133, 90.98206
917.0955, 85.21606
917.5776, 79.04871
918.0597, 71.50732
918.5418, 64.15601
919.0239, 59.27551
919.5060, 55.93750
919.9882, 52.46094
920.4703, 47.06665
920.9524, 43.00525
921.4345, 41.16577
921.9166, 40.56995
922.3987, 40.29041
922.8809, 40.34216
923.3630, 39.47290
923.8451, 37.13171
924.3272, 36.08008
924.8093, 40.16553
925.2914, 46.93848
925.7736, 52.94348
926.2557, 57.32336
926.7378, 63.31836
927.2199, 72.01208
927.7020, 82.50476
928.1841, 94.53333
928.6663, 108.0737
929.1484, 122.8824
929.6305, 139.0973
930.1126, 155.6036
930.5947, 171.9423
931.0768, 188.2076
931.5590, 206.3237
932.0411, 224.9474
932.5232, 237.7919
933.0053, 244.1711
933.4874, 242.5645
933.9695, 231.5338
934.4517, 213.4633
934.9338, 192.8323
935.4159, 169.7722
935.8980, 146.4694
936.3801, 123.6250
936.8622, 101.9039
937.3444, 81.86877
937.8265, 64.13055
938.3086, 49.35687
938.7907, 38.36615
939.2728, 29.61896
939.7549, 23.43958
940.2371, 18.83289
940.7192, 14.85724
941.2013, 11.51862
941.6834, 9.605835
942.1655, 9.205017
942.6476, 9.150024
943.1298, 8.384521
943.6119, 7.539612
944.0940, 7.080017
944.5761, 7.053528
945.0582, 7.966675
945.5403, 11.40710
946.0225, 13.87323
946.5046, 13.70300
946.9867, 11.88055
947.4688, 12.55615
947.9509, 15.62177
948.4330, 19.06427
948.9152, 22.14496
949.3973, 25.09070
949.8794, 28.12665
950.3615, 31.18988
950.8436, 34.16656
951.3257, 36.71399
951.8079, 39.31451
952.2900, 42.00580
952.7721, 44.58020
953.2542, 46.41119
953.7363, 47.79828
954.2184, 50.83942
954.7006, 55.95862
955.1827, 61.69775
955.6648, 66.91919
956.1469, 72.17108
956.6290, 77.88446
957.1111, 84.26758
957.5933, 90.89850
958.0754, 97.24670
958.5575, 105.0500
959.0396, 115.1657
959.5217, 127.2604
960.0038, 140.8560
960.4860, 155.7842
960.9681, 170.8717
961.4502, 184.3528
961.9323, 198.7196
962.4144, 216.3797
962.8965, 235.6808
963.3787, 252.5897
963.8608, 266.8845
964.3429, 279.4580
964.8250, 289.8741
965.3071, 300.2995
965.7892, 313.7275
966.2714, 329.2471
966.7535, 345.5748
967.2356, 362.8575
967.7177, 377.2269
968.1998, 386.4920
968.6819, 391.8396
969.1641, 394.9371
969.6462, 389.6848
970.1283, 387.8022
970.6104, 367.7303
971.0925, 344.8779
971.5746, 323.0709
972.0568, 302.2092
972.5389, 281.6490
973.0210, 261.5704
973.5031, 243.2473
973.9852, 227.3437
974.4673, 213.1497
974.9495, 200.4862
975.4316, 189.2799
975.9137, 180.0876
976.3958, 173.0799
976.8779, 165.5808
977.3600, 156.9294
977.8422, 148.8295
978.3243, 143.7679
978.8064, 139.8876
979.2885, 134.7953
979.7706, 127.7465
980.2527, 121.2928
980.7349, 116.3428
981.2170, 111.3270
981.6991, 105.1858
982.1812, 98.21912
982.6633, 93.28979
983.1454, 90.22461
983.6276, 87.19781
984.1097, 82.84210
984.5918, 78.33350
985.0739, 74.50299
985.5560, 71.24445
986.0381, 68.34052
986.5203, 65.69104
987.0024, 63.47485
987.4845, 61.72076
987.9666, 60.41693
988.4487, 59.72302
988.9308, 59.47516
989.4130, 59.12524
989.8951, 58.56732
990.3772, 58.10828
990.8593, 58.06812
991.3414, 58.09296
991.8235, 57.78290
992.3057, 57.08411
992.7878, 57.28113
993.2699, 58.50244
993.7520, 59.79395
994.2341, 60.55792
994.7162, 61.12732
995.1984, 62.26733
995.6805, 63.63403
996.1626, 64.21796
996.6447, 62.85968
997.1268, 61.67230
997.6089, 61.34869
998.0911, 61.35950
998.5732, 60.96643
999.0553, 60.18127
999.5374, 59.13519
1000.020, 57.88702
1000.502, 56.60229
1000.984, 55.48193
1001.466, 54.24518
1001.948, 52.34265
1002.430, 49.60345
1002.912, 48.38031
1003.394, 49.70630
1003.876, 51.02606
1004.359, 51.24976
1004.841, 50.47876
1005.323, 49.06604
1005.805, 47.28979
1006.287, 45.77277
1006.769, 45.06140
1007.251, 44.27679
1007.733, 42.42859
1008.216, 40.55548
1008.698, 40.05420
1009.180, 41.45062
1009.662, 42.24646
1010.144, 42.37360
1010.626, 41.82837
1011.108, 40.01147
1011.590, 37.66827
1012.072, 35.78442
1012.555, 34.51544
1013.037, 34.33612
1013.519, 36.60303
1014.001, 38.50427
1014.483, 39.05676
1014.965, 38.64465
1015.447, 38.38745
1015.929, 38.23218
1016.411, 38.14612
1016.894, 38.28223
1017.376, 38.14594
1017.858, 37.17853
1018.340, 35.80859
1018.822, 34.46460
1019.304, 33.09473
1019.786, 32.00073
1020.268, 31.18243
1020.751, 30.72333
1021.233, 31.17261
1021.715, 31.93744
1022.197, 30.97418
1022.679, 28.60333
1023.161, 26.88525
1023.643, 27.75342
1024.125, 28.50714
1024.607, 27.40009
1025.090, 25.73724
1025.572, 26.56964
1026.054, 30.06500
1026.536, 32.92316
1027.018, 34.63580
1027.500, 35.63287
1027.982, 36.29956
1028.464, 36.55914
1028.947, 35.96637
1029.429, 34.13940
1029.911, 33.45300
1030.393, 34.47754
1030.875, 35.88745
1031.357, 37.06006
1031.839, 38.13354
1032.321, 39.46814
1032.803, 41.02478
1033.286, 42.66113
1033.768, 44.83228
1034.250, 46.52551
1034.732, 46.69507
1035.214, 46.39282
1035.696, 47.34058
1036.178, 50.05237
1036.660, 51.39038
1037.143, 51.05896
1037.625, 49.99536
1038.107, 48.63135
1038.589, 47.29797
1039.071, 46.25720
1039.553, 45.51123
1040.035, 45.62134
1040.517, 48.04370
1041.000, 49.30005
1041.482, 48.07776
1041.964, 45.43652
1042.446, 43.75208
1042.928, 42.90955
1043.410, 42.30542
1043.892, 41.84045
1044.374, 41.60779
1044.856, 42.07983
1045.339, 42.53186
1045.821, 42.27625
1046.303, 41.17749
1046.785, 40.19922
1047.267, 39.35596
1047.749, 38.56067
1048.231, 37.82849
1048.713, 37.06909
1049.195, 36.13086
1049.677, 35.04199
1050.160, 33.90247
1050.642, 32.48889
1051.124, 31.46729
1051.606, 31.10352
1052.088, 30.84692
1052.570, 29.86609
1053.052, 28.33533
1053.534, 27.09985
1054.017, 26.29199
1054.499, 24.92029
1054.981, 21.08606
1055.463, 17.69043
1055.945, 17.26782
1056.427, 19.08350
1056.909, 18.65979
1057.391, 15.78528
1057.874, 13.32983
1058.356, 12.59717
1058.838, 12.02393
1059.320, 9.067017
1059.802, 5.318726
1060.284, 3.029297
1060.766, 3.288818
1061.248, 3.773071
1061.730, 4.600098
1062.213, 5.171509
1062.695, 4.809692
1063.177, 3.865845
1063.659, 4.046143
1064.141, 4.966919
1064.623, 4.817383
1065.105, 0.7243650
1065.587, 2.395752
1066.070, 1.438721
1066.552, 1.001831
1067.034, 0.7409670
1067.516, 2.367554
1067.998, 3.646973
1068.480, 2.411865
1068.962, 0.8492430
1069.444, 1.115601
1069.927, 1.841431
1070.409, 1.481934
1070.891, 3.7719999E-02
1071.373, 0.3691410
1071.855, 1.002563
1072.337, 2.264038
1072.819, 2.931885
1073.301, 3.086792
1073.783, 2.235596
1074.266, 1.066895
1074.748, 1.241455
1075.230, 4.024902
1075.712, 5.860474
1076.194, 5.291626
1076.676, 4.118164
1077.158, 3.254395
1077.640, 2.705933
1078.122, 2.390015
1078.604, 2.295654
1079.087, 2.375244
1079.569, 3.097900
1080.051, 3.485474
1080.533, 2.280151
1081.015, 0.6064450
1081.497, 0.5902100
1081.979, 2.781494
1082.461, 4.378784
1082.944, 5.249268
1083.426, 5.046387
1083.908, 1.972168
1084.390, 1.439697
1084.872, 1.520386
1085.354, 1.573608
1085.836, 3.298096
1086.318, 2.226563
1086.801, 1.186035
1087.283, 0.7761230
1087.765, 0.8190920
1088.247, 0.9426270
1088.729, 1.248413
1089.211, 2.250854
1089.693, 4.347900
1090.175, 5.686035
1090.657, 4.770142
1091.140, 3.563599
1091.622, 3.278687
1092.104, 3.714722
1092.586, 2.851196
1093.068, 0.8192140
1093.550, 0.5906980
1094.032, 0.2706300
1094.514, 0.4814450
1094.997, 0.8594970
1095.479, 1.011963
1095.961, 1.222778
1096.443, 1.833862
1096.925, 1.211548
1097.407, 0.8347170
1097.889, 3.008545
1098.371, 4.858276
1098.854, 5.825195
1099.336, 4.292114
1099.818, 1.094849
1100.300, 0.5159910
1100.782, 1.602173
1101.264, 2.836426
1101.746, 2.438110
1102.228, 1.370728
1102.710, 0.5246580
1103.193, 8.1177004E-02
1103.675, 0.7822270
1104.157, 2.712769
1104.639, 4.339355
1105.121, 5.421631
1105.603, 5.505127
1106.085, 3.912964
1106.567, 1.496216
1107.049, 1.109497
1107.531, 2.486450
1108.014, 3.364624
1108.496, 3.005737
1108.978, 2.561768
1109.460, 2.049438
1109.942, 2.426880
1110.424, 5.140381
1110.906, 10.36475
1111.388, 12.28882
1111.871, 10.70129
1112.353, 8.852295
1112.835, 8.205811
1113.317, 8.270996
1113.799, 8.997925
1114.281, 9.941528
1114.763, 10.31628
1115.245, 9.364380
1115.728, 9.337036
1116.210, 10.68860
1116.692, 11.54541
1117.174, 9.308594
1117.656, 5.993408
1118.138, 5.415161
1118.620, 7.175781
1119.102, 9.171021
1119.584, 11.28357
1120.067, 12.61353
1120.549, 12.77893
1121.031, 12.47119
1121.513, 12.64453
1121.995, 13.10071
1122.477, 13.13110
1122.959, 12.65771
1123.441, 12.01526
1123.924, 11.48523
1124.406, 10.92932
1124.888, 10.11462
1125.370, 9.092407
1125.852, 8.131592
1126.334, 7.354614
1126.816, 7.315186
1127.298, 8.344116
1127.781, 8.993774
1128.263, 7.984253
1128.745, 6.369019
1129.227, 4.513672
1129.709, 2.497314
1130.191, 3.135132
1130.673, 6.696899
1131.155, 9.114258
1131.637, 8.408813
1132.120, 6.577148
1132.602, 5.064209
1133.084, 3.914551
1133.566, 3.305908
1134.048, 3.325073
1134.530, 4.187988
1135.012, 6.203735
1135.494, 7.904175
1135.976, 7.925293
1136.458, 7.305542
1136.941, 7.977539
1137.423, 9.343262
1137.905, 9.762207
1138.387, 7.700439
1138.869, 6.803711
1139.351, 7.528809
1139.833, 8.674561
1140.315, 9.345947
1140.798, 9.537842
1141.280, 8.877686
1141.762, 7.741211
1142.244, 7.333008
1142.726, 8.970215
1143.208, 10.34888
1143.690, 11.03406
1144.172, 11.21509
1144.655, 11.12561
1145.137, 10.74109
1145.619, 9.731079
1146.101, 8.069946
1146.583, 6.988892
1147.065, 7.868042
1147.547, 8.710571
1148.029, 8.533081
1148.511, 7.857910
1148.994, 8.195313
1149.476, 9.253052
1149.958, 8.853027
1150.440, 6.175903
1150.922, 4.329346
1151.404, 6.620361
1151.886, 9.578247
1152.368, 10.40576
1152.851, 9.327271
1153.333, 8.961304
1153.815, 9.298340
1154.297, 9.409668
1154.779, 8.735962
1155.261, 8.318237
1155.743, 9.493896
1156.225, 11.10217
1156.708, 11.61304
1157.190, 10.71948
1157.672, 10.87964
1158.154, 12.28955
1158.636, 12.96313
1159.118, 11.10168
1159.600, 8.607300
1160.082, 7.769287
1160.564, 7.754517
1161.047, 7.070679
1161.529, 5.165649
1162.011, 3.479004
1162.493, 1.896973
1162.975, 1.102417
1163.457, 1.952759
1163.939, 3.629517
1164.421, 5.269287
1164.903, 6.772461
1165.385, 7.915771
1165.868, 8.888550
1166.350, 8.717773
1166.832, 6.885620
1167.314, 5.039795
1167.796, 5.263550
1168.278, 6.481445
1168.760, 6.651489
1169.242, 5.859131
1169.725, 5.486938
1170.207, 7.056152
1170.689, 7.409912
1171.171, 5.676147
1171.653, 3.329712
1172.135, 2.286133
1172.617, 2.267212
1173.099, 2.754150
1173.582, 3.682373
1174.064, 4.916748
1174.546, 7.248535
1175.028, 8.682373
1175.510, 8.419434
1175.992, 7.259033
1176.474, 6.904907
1176.956, 6.953003
1177.438, 5.972656
1177.921, 3.505981
1178.403, 1.755249
1178.885, 2.020630
1179.367, 2.839233
1179.849, 4.011230
1180.331, 5.099121
1180.813, 4.045288
1181.295, 1.527100
1181.778, 0.1036380
1182.260, 0.5087890
1182.742, 1.960693
1183.224, 6.042603
1183.706, 9.052246
1184.188, 8.514160
1184.670, 5.237915
1185.152, 3.289673
1185.635, 2.568237
1186.117, 2.745972
1186.599, 4.108765
1187.081, 5.469971
1187.563, 6.555908
1188.045, 7.076172
1188.527, 6.630127
1189.009, 5.319336
1189.491, 4.608643
1189.974, 4.459595
1190.456, 4.652466
1190.938, 5.961670
1191.420, 6.392456
1191.902, 3.724976
1192.384, 0.6312260
1192.866, 0.2072750
1193.348, 2.557007
1193.830, 1.692871
1194.313, 2.060913
1194.795, 4.549927
1195.277, 2.006226
1195.759, 1.038452
1196.241, 2.120972
1196.723, 2.210449
1197.205, 2.679565
1197.687, 3.580566
1198.169, 2.840942
1198.652, 0.4481200
1199.134, 1.343262
1199.616, 0.2935790
1200.098, 1.072876
1200.580, 1.053345
1201.062, 0.4820560
1201.544, 1.005371
1202.026, 2.680298
1202.509, 3.128784
1202.991, 2.117432
1203.473, 1.098755
1203.955, 1.276855
1204.437, 1.639526
1204.919, 1.518677
1205.401, 1.111206
1205.883, 0.6408690
1206.365, 7.8247003E-02
1206.848, 0.7269290
1207.330, 2.799072
1207.812, 5.295166
1208.294, 8.627808
1208.776, 11.07104
1209.258, 10.53552
1209.740, 8.241699
1210.222, 7.672607
1210.705, 8.884277
1211.187, 8.887817
1211.669, 7.066528
1212.151, 5.346680
1212.633, 5.182495
1213.115, 5.510254
1213.597, 5.458740
1214.079, 5.223633
1214.562, 5.616699
1215.044, 6.765015
1215.526, 8.137451
1216.008, 9.787964
1216.490, 10.75793
1216.972, 9.451172
1217.454, 7.762573
1217.936, 7.033813
1218.418, 7.142822
1218.901, 7.742432
1219.383, 8.783325
1219.865, 8.903442
1220.347, 7.333252
1220.829, 6.228271
1221.311, 8.185303
1221.793, 10.41760
1222.275, 10.79163
1222.757, 9.568237
1223.240, 8.818970
1223.722, 8.500000
1224.204, 7.821289
1224.686, 6.379517
1225.168, 5.041138
1225.650, 4.016846
1226.132, 3.807861
1226.614, 5.177734
1227.096, 7.761719
1227.579, 7.843628
1228.061, 5.742798
1228.543, 4.134277
1229.025, 3.965942
1229.507, 4.598877
1229.989, 6.298096
1230.471, 8.098389
1230.953, 9.261108
1231.436, 9.815430
1231.918, 9.684937
1232.400, 9.047607
1232.882, 9.209229
1233.364, 11.66052
1233.846, 13.22058
1234.328, 11.78027
1234.810, 9.344971
1235.292, 6.852173
1235.775, 4.556274
1236.257, 5.262207
1236.739, 8.365112
1237.221, 10.47998
1237.703, 9.078979
1238.185, 8.209961
1238.667, 10.49646
1239.149, 12.68774
1239.632, 11.88477
1240.114, 8.910034
1240.596, 9.126709
1241.078, 11.62878
1241.560, 12.73962
1242.042, 8.542603
1242.524, 6.035767
1243.006, 7.678101
1243.489, 10.38611
1243.971, 11.94250
1244.453, 12.56287
1244.935, 12.94641
1245.417, 13.07227
1245.899, 13.12585
1246.381, 12.89807
1246.863, 13.25354
1247.345, 14.62024
1247.828, 15.72253
1248.310, 14.74951
1248.792, 12.41772
1249.274, 12.36523
1249.756, 13.64893
1250.238, 14.70581
1250.720, 14.82788
1251.202, 14.61536
1251.684, 14.17029
1252.167, 13.06201
1252.649, 9.551880
1253.131, 5.605835
1253.613, 6.428711
1254.095, 10.41626
1254.577, 12.45032
1255.059, 9.771118
1255.541, 8.463379
1256.023, 8.998169
1256.506, 10.02136
1256.988, 10.72412
1257.470, 10.95508
1257.952, 10.39185
1258.434, 9.250244
1258.916, 8.113525
1259.398, 6.932251
1259.880, 6.238525
1260.363, 6.133667
1260.845, 6.258667
1261.327, 6.190430
1261.809, 6.237793
1262.291, 7.242798
1262.773, 8.550415
1263.255, 8.587524
1263.737, 7.055420
1264.219, 5.240234
1264.702, 3.224243
1265.184, 1.556641
1265.666, 0.6507570
1266.148, 0.2862550
1266.630, 0.4265140
1267.112, 0.9552000
1267.594, 1.805908
1268.076, 3.129883
1268.559, 2.815552
1269.041, 0.6988530
1269.523, 0.7139890
1270.005, 1.003662
1270.487, 3.123535
1270.969, 4.754883
1271.451, 5.380859
1271.933, 3.155151
1272.416, 1.479248
1272.898, 0.7766110
1273.380, 5.169556
1273.862, 9.580322
1274.344, 6.706665
1274.826, 3.881592
1275.308, 3.963379
1275.790, 5.057495
1276.272, 4.573975
1276.755, 3.059204
1277.237, 2.725952
1277.719, 3.500732
1278.201, 4.163086
1278.683, 4.269897
1279.165, 3.926758
1279.647, 2.950562
1280.129, 2.019653
1280.611, 1.709595
1281.094, 2.118896
1281.576, 4.276611
1282.058, 7.619141
1282.540, 8.992432
1283.022, 4.961670
1283.504, 4.249146
1283.986, 8.426025
1284.468, 13.06213
1284.950, 14.11792
1285.433, 13.19519
1285.915, 11.39978
1286.397, 9.845459
1286.879, 8.938354
1287.361, 7.995728
1287.843, 7.435669
1288.325, 7.437378
1288.807, 7.962646
1289.290, 10.60754
1289.772, 12.85095
1290.254, 12.36267
1290.736, 9.939941
1291.218, 7.673462
1291.700, 5.563232
1292.182, 3.955933
1292.664, 2.746216
1293.146, 2.954590
1293.629, 6.657471
1294.111, 10.53430
1294.593, 13.54456
1295.075, 14.96826
1295.557, 12.68909
1296.039, 7.372437
1296.521, 4.783691
1297.003, 4.947510
1297.486, 5.455444
1297.968, 6.148682
1298.450, 5.675659
1298.932, 3.212769
1299.414, 0.5500490
1299.896, 9.3993999E-02
1300.378, 0.6269530
1300.860, 0.7611080
1301.343, 0.1580810
1301.825, 0.0000000E+00
##END=



