##NAMES=Corvusite
##RRUFFID=R060265
##IDEAL CHEMISTRY=(Na,Ca,K)_1-x_(V^5+^,V^4+^,Fe^2+^)_8_O_20_&#183;4H_2_O
##LOCALITY=Monument no. 2 mine, Monument Valley, Apache County, Arizona, USA
##OWNER=RRUFF
##SOURCE=Michael Scott
##DESCRIPTION=Dark brown lathlike bladed crystals in parallel
##STATUS=The identification of this mineral is not yet confirmed.
##URL=rruff.info/R060265
166.7434, 0.0000000E+00
167.2255, 9.5138997E-02
167.7076, 0.4390720
168.1898, 1.521515
168.6719, 2.173126
169.1540, 2.196625
169.6361, 2.213699
170.1182, 3.194336
170.6003, 5.673798
171.0825, 7.687561
171.5646, 8.792419
172.0467, 9.505493
172.5288, 10.33118
173.0109, 11.37944
173.4930, 12.72002
173.9752, 14.70694
174.4573, 17.48248
174.9394, 19.81824
175.4215, 21.04863
175.9036, 21.57336
176.3857, 22.37317
176.8679, 23.88751
177.3500, 25.53680
177.8321, 26.45039
178.3142, 26.54228
178.7963, 26.70296
179.2784, 27.44679
179.7606, 28.71117
180.2427, 30.15616
180.7248, 31.95914
181.2069, 33.61299
181.6890, 34.68687
182.1711, 35.22159
182.6533, 35.55553
183.1354, 36.05963
183.6175, 36.85158
184.0996, 36.95476
184.5817, 35.09825
185.0638, 33.23499
185.5460, 32.44279
186.0281, 32.88747
186.5102, 33.87747
186.9923, 33.82465
187.4744, 32.59898
187.9565, 31.94925
188.4387, 31.12590
188.9208, 30.74666
189.4029, 30.69653
189.8850, 30.89304
190.3671, 31.59264
190.8492, 31.51807
191.3314, 30.00438
191.8135, 28.36525
192.2956, 26.70441
192.7777, 25.31723
193.2598, 24.33272
193.7419, 23.61497
194.2241, 22.96188
194.7062, 21.94170
195.1883, 20.24406
195.6704, 18.55492
196.1525, 17.02730
196.6346, 15.53784
197.1168, 13.87177
197.5989, 11.89403
198.0810, 9.772293
198.5631, 8.201721
199.0452, 7.457230
199.5273, 6.822784
200.0095, 6.028549
200.4916, 5.318970
200.9737, 5.196945
201.4558, 6.024368
201.9379, 7.252243
202.4200, 7.172287
202.9022, 5.101791
203.3843, 3.312363
203.8664, 2.882217
204.3485, 3.380814
204.8306, 3.518631
205.3127, 2.588226
205.7949, 1.142242
206.2770, 0.4675600
206.7591, 0.9121400
207.2412, 1.294037
207.7233, 0.7003330
208.2054, 0.6842650
208.6876, 1.656830
209.1697, 1.502335
209.6518, 0.8364870
210.1339, 0.6658940
210.6160, 1.198380
211.0981, 1.729126
211.5803, 1.508087
212.0624, 0.5322720
212.5445, 8.3099000E-02
213.0266, 0.4245610
213.5087, 1.257233
213.9908, 1.677185
214.4730, 1.546524
214.9551, 1.163788
215.4372, 0.7866820
215.9193, 0.3945920
216.4014, 0.1298830
216.8836, 9.2635997E-02
217.3657, 0.1725010
217.8478, 0.3625030
218.3299, 0.6637420
218.8120, 0.9327700
219.2941, 0.9822240
219.7763, 0.7959900
220.2584, 0.4328310
220.7405, 0.2571870
221.2226, 1.009369
221.7047, 1.638824
222.1868, 2.096771
222.6690, 2.474014
223.1511, 2.964996
223.6332, 3.796555
224.1153, 4.193954
224.5974, 4.111801
225.0795, 3.782440
225.5617, 3.522736
226.0438, 3.423767
226.5259, 3.436798
227.0080, 3.442978
227.4901, 3.199677
227.9722, 3.450180
228.4544, 4.796158
228.9365, 6.222885
229.4186, 6.841293
229.9007, 6.441223
230.3828, 5.560043
230.8649, 5.109772
231.3471, 5.111877
231.8292, 5.609512
232.3113, 7.115921
232.7934, 8.773193
233.2755, 9.839813
233.7576, 10.12195
234.2398, 10.00215
234.7219, 10.10326
235.2040, 10.54471
235.6861, 11.02570
236.1682, 11.42834
236.6503, 11.92896
237.1325, 12.90559
237.6146, 14.41327
238.0967, 15.80220
238.5788, 15.96846
239.0609, 13.85773
239.5430, 13.04039
240.0252, 14.47449
240.5073, 16.84315
240.9894, 19.02451
241.4715, 20.75488
241.9536, 21.99887
242.4357, 22.58812
242.9179, 22.31412
243.4000, 22.30692
243.8821, 22.94348
244.3642, 23.77121
244.8463, 24.16537
245.3284, 23.97353
245.8106, 23.83673
246.2927, 24.49617
246.7748, 25.95027
247.2569, 27.91199
247.7390, 30.98296
248.2211, 34.27492
248.7033, 36.75531
249.1854, 38.25662
249.6675, 39.07947
250.1496, 38.98729
250.6317, 38.19633
251.1138, 38.43680
251.5960, 40.49071
252.0781, 43.59024
252.5602, 46.92860
253.0423, 50.47675
253.5244, 53.92485
254.0065, 56.91422
254.4887, 59.54713
254.9708, 62.06346
255.4529, 64.25259
255.9350, 66.45930
256.4171, 69.19843
256.8992, 72.55997
257.3813, 76.12100
257.8635, 79.69495
258.3456, 83.26077
258.8277, 86.80629
259.3098, 90.06198
259.7919, 93.43315
260.2740, 97.60669
260.7562, 102.7390
261.2383, 107.8959
261.7204, 112.6989
262.2025, 117.2070
262.6846, 121.4063
263.1667, 125.0573
263.6489, 128.6404
264.1310, 133.1750
264.6131, 139.0675
265.0952, 144.2859
265.5773, 147.2456
266.0594, 149.2201
266.5416, 151.3871
267.0237, 154.1452
267.5058, 157.2625
267.9879, 160.5528
268.4700, 164.1227
268.9521, 167.0789
269.4343, 168.7616
269.9164, 170.0002
270.3985, 171.3394
270.8806, 172.8636
271.3627, 174.2263
271.8448, 175.0273
272.3270, 175.2383
272.8091, 175.2787
273.2912, 174.9891
273.7733, 174.7304
274.2554, 174.8914
274.7375, 175.4565
275.2197, 175.7428
275.7018, 174.8284
276.1839, 172.5198
276.6660, 170.2460
277.1481, 168.3491
277.6302, 166.5190
278.1124, 164.6976
278.5945, 162.8115
279.0766, 160.6369
279.5587, 157.9415
280.0408, 154.7055
280.5229, 151.2159
281.0051, 147.0918
281.4872, 143.0604
281.9693, 139.4929
282.4514, 136.3001
282.9335, 133.1076
283.4156, 129.6546
283.8978, 125.9559
284.3799, 122.0131
284.8620, 117.2691
285.3441, 112.8394
285.8262, 109.1415
286.3083, 106.0844
286.7905, 103.4392
287.2726, 101.1760
287.7547, 99.20326
288.2368, 96.72704
288.7189, 93.26389
289.2010, 89.81958
289.6832, 86.76512
290.1653, 83.90753
290.6474, 80.86827
291.1295, 77.39384
291.6116, 73.65067
292.0938, 70.40880
292.5759, 67.93228
293.0580, 65.70070
293.5401, 63.76131
294.0222, 61.92332
294.5043, 60.01561
294.9865, 57.97452
295.4686, 55.79312
295.9507, 53.43631
296.4328, 50.66173
296.9149, 48.18587
297.3970, 45.97609
297.8792, 44.10463
298.3613, 42.72797
298.8434, 41.90092
299.3255, 41.41190
299.8076, 41.00034
300.2897, 40.96107
300.7719, 40.28030
301.2540, 38.49796
301.7361, 36.46872
302.2182, 34.60406
302.7003, 33.03543
303.1824, 31.76286
303.6646, 30.87634
304.1467, 30.61559
304.6288, 29.84674
305.1109, 27.97292
305.5930, 26.13632
306.0751, 24.87122
306.5573, 24.15742
307.0394, 23.69052
307.5215, 23.23866
308.0036, 22.81024
308.4857, 22.22151
308.9678, 21.51625
309.4500, 20.59241
309.9321, 19.13419
310.4142, 17.42909
310.8963, 16.04311
311.3784, 15.38239
311.8605, 15.35312
312.3427, 15.22511
312.8248, 14.87329
313.3069, 14.56284
313.7890, 14.45976
314.2711, 14.39140
314.7532, 14.10440
315.2354, 13.46716
315.7175, 12.61101
316.1996, 11.93169
316.6817, 11.60930
317.1638, 11.17633
317.6459, 10.44774
318.1281, 9.670227
318.6102, 9.083984
319.0923, 8.759369
319.5744, 8.569000
320.0565, 8.285568
320.5386, 7.794281
321.0208, 7.484299
321.5029, 7.701508
321.9850, 7.829956
322.4671, 7.459442
322.9492, 6.559921
323.4313, 5.390640
323.9135, 4.141647
324.3956, 2.717148
324.8777, 1.722641
325.3598, 1.241623
325.8419, 1.109619
326.3240, 1.329681
326.8062, 1.861435
327.2883, 2.683182
327.7704, 3.916275
328.2525, 5.490753
328.7346, 6.202560
329.2167, 5.534927
329.6989, 4.498459
330.1810, 2.881104
330.6631, 1.161072
331.1452, 2.7938999E-02
331.6273, 0.1253510
332.1094, 0.4624790
332.5916, 1.137909
333.0737, 2.350418
333.5558, 2.818665
334.0379, 1.878998
334.5200, 0.4517360
335.0021, 0.6576840
335.4843, 1.185364
335.9664, 1.308670
336.4485, 1.231827
336.9306, 0.8097690
337.4127, 0.6281430
337.8948, 0.9646610
338.3770, 1.378403
338.8591, 1.684204
339.3412, 1.830719
339.8233, 1.784164
340.3055, 1.424133
340.7876, 0.7009580
341.2697, 0.1863710
341.7518, 0.1345210
342.2339, 5.3344999E-02
342.7160, 0.3603060
343.1982, 0.9644780
343.6803, 1.416183
344.1624, 1.501190
344.6445, 1.245056
345.1266, 1.491821
345.6087, 1.396351
346.0909, 1.343109
346.5730, 1.292252
347.0551, 0.8132020
347.5372, 0.5098270
348.0193, 0.6568300
348.5014, 0.9776760
348.9836, 0.9312440
349.4657, 0.3860320
349.9478, 8.5341997E-02
350.4299, 0.3730620
350.9120, 0.5064850
351.3941, 0.4179230
351.8763, 0.1047360
352.3584, 0.1873630
352.8405, 9.3383998E-02
353.3226, 0.4060970
353.8047, 0.5317230
354.2868, 0.3585660
354.7690, 1.071533
355.2511, 0.7202000
355.7332, 0.5105590
356.2153, 1.759323
356.6974, 2.607391
357.1795, 3.048248
357.6617, 2.979736
358.1438, 2.186966
358.6259, 1.324127
359.1080, 0.6790470
359.5901, 0.2267910
360.0722, 6.3995004E-02
360.5544, 0.2282710
361.0365, 0.2074580
361.5186, 0.1188810
362.0007, 0.7760930
362.4828, 1.559265
362.9649, 2.796753
363.4471, 3.862732
363.9292, 3.899414
364.4113, 2.605209
364.8934, 1.248093
365.3755, 0.8204190
365.8576, 1.192459
366.3398, 1.667740
366.8219, 2.133041
367.3040, 2.595291
367.7861, 3.135071
368.2682, 3.735718
368.7503, 4.126617
369.2325, 3.981354
369.7146, 3.623276
370.1967, 3.672958
370.6788, 4.245712
371.1609, 4.832748
371.6430, 4.914673
372.1252, 4.687698
372.6073, 4.809509
373.0894, 5.724899
373.5715, 6.730499
374.0536, 7.190018
374.5357, 7.193115
375.0179, 7.321442
375.5000, 7.940979
375.9821, 8.773346
376.4642, 9.087936
376.9463, 8.512146
377.4284, 8.331085
377.9106, 9.409393
378.3927, 11.10771
378.8748, 12.25179
379.3569, 12.48901
379.8390, 12.45087
380.3211, 12.93578
380.8033, 14.02925
381.2854, 15.20447
381.7675, 16.37453
382.2496, 17.64346
382.7317, 19.27034
383.2138, 21.17807
383.6960, 22.79955
384.1781, 23.64632
384.6602, 23.78792
385.1423, 24.32562
385.6244, 25.50067
386.1065, 26.71481
386.5887, 27.73422
387.0708, 28.66179
387.5529, 29.63643
388.0350, 30.71034
388.5171, 31.97745
388.9992, 33.66736
389.4814, 36.70279
389.9635, 38.75107
390.4456, 39.08228
390.9277, 38.89220
391.4098, 39.07539
391.8919, 39.78670
392.3741, 40.73203
392.8562, 41.58847
393.3383, 42.39903
393.8204, 43.02599
394.3025, 43.44810
394.7846, 43.77083
395.2668, 43.85764
395.7489, 43.83905
396.2310, 44.04410
396.7131, 44.71083
397.1952, 45.61882
397.6773, 45.97031
398.1595, 45.49602
398.6416, 44.93976
399.1237, 44.44528
399.6058, 43.85237
400.0879, 42.98286
400.5700, 41.82809
401.0522, 40.60738
401.5343, 39.56789
402.0164, 38.72141
402.4985, 38.03018
402.9806, 37.86520
403.4627, 37.46254
403.9449, 36.37468
404.4270, 34.81633
404.9091, 33.25932
405.3912, 31.94017
405.8733, 30.80183
406.3554, 29.78682
406.8376, 29.01645
407.3197, 28.13100
407.8018, 26.84248
408.2839, 25.39986
408.7660, 24.07785
409.2481, 22.93692
409.7303, 21.87511
410.2124, 20.70894
410.6945, 19.47523
411.1766, 18.51096
411.6587, 17.98647
412.1408, 17.60036
412.6230, 17.14746
413.1051, 16.66051
413.5872, 15.99792
414.0693, 15.01956
414.5514, 13.81194
415.0335, 12.38263
415.5157, 10.68576
415.9978, 9.289230
416.4799, 8.686249
416.9620, 8.665405
417.4441, 8.509186
417.9262, 8.271225
418.4084, 7.781021
418.8905, 6.635178
419.3726, 5.161774
419.8547, 4.263031
420.3368, 4.315720
420.8189, 4.838486
421.3011, 5.122299
421.7832, 5.183563
422.2653, 4.962296
422.7474, 4.229233
423.2295, 3.361023
423.7116, 2.562683
424.1938, 1.906189
424.6759, 1.566879
425.1580, 1.728348
425.6401, 2.356064
426.1222, 2.815369
426.6043, 3.085251
427.0865, 3.239197
427.5686, 3.218155
428.0507, 3.114944
428.5328, 3.092361
429.0149, 3.207138
429.4970, 3.309875
429.9792, 3.097473
430.4613, 2.234467
430.9434, 1.798996
431.4255, 1.991516
431.9076, 2.351990
432.3897, 2.669968
432.8719, 2.922455
433.3540, 3.156372
433.8361, 3.401260
434.3182, 3.660126
434.8003, 4.010635
435.2824, 4.908875
435.7646, 5.148911
436.2467, 3.666809
436.7288, 1.825089
437.2109, 1.231812
437.6930, 2.401428
438.1751, 4.125717
438.6573, 4.812958
439.1394, 4.366577
439.6215, 4.255508
440.1036, 5.042542
440.5857, 5.792740
441.0678, 5.829132
441.5500, 5.297211
442.0321, 4.782318
442.5142, 4.581909
442.9963, 4.582199
443.4784, 4.528534
443.9605, 4.386688
444.4427, 4.475418
444.9248, 5.125092
445.4069, 6.025574
445.8890, 6.690994
446.3711, 7.179077
446.8532, 7.222733
447.3354, 6.057434
447.8175, 4.410858
448.2996, 4.084892
448.7817, 5.620659
449.2638, 7.591995
449.7459, 8.443016
450.2281, 8.087189
450.7102, 7.955002
451.1923, 8.318199
451.6744, 8.723259
452.1565, 8.962395
452.6386, 9.010284
453.1208, 8.769432
453.6029, 8.135712
454.0850, 7.355759
454.5671, 7.118576
455.0492, 8.008324
455.5313, 8.666779
456.0135, 9.118378
456.4956, 9.307953
456.9777, 9.096710
457.4598, 8.529404
457.9419, 7.847298
458.4240, 7.219559
458.9062, 6.642838
459.3883, 6.558601
459.8704, 7.665398
460.3525, 8.489365
460.8346, 8.506798
461.3167, 8.138077
461.7989, 7.930542
462.2810, 8.092628
462.7631, 8.416176
463.2452, 8.573387
463.7273, 8.529648
464.2094, 8.524734
464.6916, 8.648796
465.1737, 8.757797
465.6558, 8.801895
466.1379, 8.765976
466.6200, 8.612053
467.1021, 8.275711
467.5843, 7.826126
468.0664, 7.391273
468.5485, 6.965828
469.0306, 6.570679
469.5127, 6.152702
469.9948, 5.817314
470.4770, 5.751190
470.9591, 6.034546
471.4412, 6.309410
471.9233, 6.434937
472.4054, 6.422890
472.8875, 6.221809
473.3697, 5.806374
473.8518, 5.480919
474.3339, 5.614876
474.8160, 6.190865
475.2981, 6.295555
475.7802, 5.489769
476.2624, 4.688789
476.7445, 4.287643
477.2266, 4.180771
477.7087, 4.123070
478.1908, 4.012115
478.6729, 3.995407
479.1551, 4.399437
479.6372, 5.736832
480.1193, 6.254677
480.6014, 5.323776
481.0835, 4.235947
481.5656, 3.707123
482.0478, 3.650772
482.5299, 3.617928
483.0120, 3.306801
483.4941, 2.809792
483.9762, 2.481995
484.4583, 2.340515
484.9405, 2.349915
485.4226, 2.604332
485.9047, 2.924400
486.3868, 3.254204
486.8689, 3.550819
487.3510, 3.630638
487.8332, 3.199333
488.3153, 2.393120
488.7974, 1.907509
489.2795, 1.909401
489.7616, 1.886772
490.2437, 1.258034
490.7259, 0.4946370
491.2080, 0.3876950
491.6901, 1.445412
492.1722, 2.447342
492.6543, 2.221169
493.1364, 1.207886
493.6186, 0.7706450
494.1007, 1.355286
494.5828, 2.162994
495.0649, 2.239197
495.5470, 1.493721
496.0291, 1.000336
496.5113, 0.9276660
496.9934, 0.9777910
497.4755, 0.8695220
497.9576, 0.7512440
498.4397, 1.089729
498.9218, 2.165131
499.4040, 3.449715
499.8861, 3.744408
500.3682, 2.203697
500.8503, 1.291222
501.3324, 1.430161
501.8145, 1.777939
502.2967, 1.818512
502.7788, 1.581421
503.2609, 1.355392
503.7430, 1.329636
504.2251, 1.485710
504.7072, 1.767433
505.1894, 2.208839
505.6715, 2.607628
506.1536, 3.035301
506.6357, 3.275322
507.1178, 3.101486
507.5999, 2.549561
508.0821, 1.974884
508.5642, 1.547539
509.0463, 1.317299
509.5284, 1.579910
510.0105, 2.518188
510.4926, 3.409645
510.9748, 3.753441
511.4569, 3.702667
511.9390, 3.669655
512.4211, 3.704422
512.9032, 3.681694
513.3853, 3.617729
513.8674, 3.488998
514.3495, 3.211212
514.8317, 2.696121
515.3138, 2.099434
515.7959, 1.635048
516.2780, 1.380867
516.7601, 1.347481
517.2422, 1.703751
517.7244, 2.068748
518.2065, 2.400543
518.6886, 2.609329
519.1707, 2.557610
519.6528, 2.234390
520.1349, 1.853920
520.6171, 1.677414
521.0992, 1.657288
521.5813, 1.658714
522.0634, 1.943970
522.5455, 2.149918
523.0276, 2.029343
523.5098, 1.751259
523.9919, 1.636414
524.4740, 1.829079
524.9561, 2.194984
525.4382, 2.651711
525.9203, 3.206879
526.4025, 3.457710
526.8846, 3.165108
527.3667, 2.735367
527.8488, 2.485573
528.3309, 2.391701
528.8130, 2.542252
529.2952, 3.519707
529.7773, 4.376602
530.2594, 4.005653
530.7415, 2.653137
531.2236, 1.509300
531.7057, 1.090828
532.1879, 1.104866
532.6700, 1.017990
533.1521, 0.7109380
533.6342, 0.5331040
534.1163, 0.3811870
534.5984, 0.4978030
535.0806, 1.456154
535.5627, 2.849632
536.0448, 3.499397
536.5269, 2.604828
537.0090, 0.7714160
537.4911, 8.1649996E-02
537.9733, 0.5340500
538.4554, 0.9408490
538.9375, 0.7922360
539.4196, 0.5618670
539.9017, 0.5527570
540.3839, 0.7246630
540.8660, 0.8249280
541.3481, 0.6532060
541.8302, 0.3334580
542.3123, 0.1272960
542.7944, 4.3526001E-02
543.2766, 1.9188000E-02
543.7587, 5.1799999E-03
544.2408, 6.8451002E-02
544.7229, 0.3575590
545.2050, 0.9175720
545.6871, 1.295822
546.1693, 1.317169
546.6514, 1.093483
547.1335, 0.5675660
547.6156, 0.1649250
548.0977, 0.5737080
548.5798, 0.2791600
549.0620, 0.4808040
549.5441, 0.9021220
550.0262, 0.5011290
550.5083, 0.4003600
550.9904, 0.9794540
551.4725, 1.574448
551.9547, 1.644730
552.4368, 1.229599
552.9189, 0.6933590
553.4010, 0.2680130
553.8831, 2.0172000E-02
554.3652, 1.6372999E-02
554.8474, 0.6196670
555.3295, 0.9377900
555.8116, 0.3470150
556.2937, 0.3262330
556.7758, 0.3825300
557.2579, 0.1711350
557.7401, 0.6226350
558.2222, 0.4073260
558.7043, 0.1188050
559.1864, 0.2948230
559.6685, 0.1005940
560.1506, 2.3758000E-02
560.6328, 0.1395950
561.1149, 0.4977190
561.5970, 0.9116820
562.0791, 1.494270
562.5612, 1.779930
563.0433, 1.608116
563.5255, 1.164619
564.0076, 0.3181990
564.4897, 0.7160720
564.9718, 1.188126
565.4539, 0.5496980
565.9360, 0.7746660
566.4182, 1.305122
566.9003, 0.4287340
567.3824, 8.4801003E-02
567.8645, 0.1727070
568.3466, 0.5418780
568.8287, 0.6311870
569.3109, 0.4511110
569.7930, 0.1648640
570.2751, 0.2637710
570.7572, 0.5927890
571.2393, 3.4743998E-02
571.7214, 1.541679
572.2036, 2.344963
572.6857, 1.384483
573.1678, 0.1417390
573.6499, 0.8355640
574.1320, 0.7227480
574.6141, 0.4765930
575.0963, 0.1096040
575.5784, 0.1831050
576.0605, 7.1898997E-02
576.5426, 0.2849350
577.0247, 0.2492680
577.5068, 0.5215530
577.9890, 0.3997306
578.4711, 0.5869723
578.9532, 9.5039003E-02
579.4353, 0.6934280
579.9174, 0.3831330
580.3995, 5.6046002E-02
580.8817, 0.2699200
581.3638, 0.2460330
581.8459, 7.3090000E-03
582.3280, 0.5104450
582.8101, 1.046143
583.2922, 1.270103
583.7744, 1.170441
584.2565, 0.8810650
584.7386, 0.1994630
585.2207, 0.3598100
585.7029, 0.3371580
586.1850, 7.7522002E-02
586.6671, 0.4212420
587.1492, 0.6641080
587.6313, 0.6969150
588.1135, 0.8594080
588.5956, 0.9657630
589.0777, 0.8812030
589.5598, 1.015556
590.0419, 0.9055400
590.5240, 0.6188660
591.0062, 0.1498410
591.4883, 0.3460010
591.9704, 0.9912030
592.4525, 1.514282
592.9346, 2.047165
593.4167, 2.321312
593.8989, 1.833862
594.3810, 1.801316
594.8631, 0.6510700
595.3452, 0.9996640
595.8273, 0.5352250
596.3094, 0.2976460
596.7916, 0.3970640
597.2737, 0.4702070
597.7558, 0.3917770
598.2379, 0.1867750
598.7200, 0.1089020
599.2021, 0.4805680
599.6843, 1.035553
600.1664, 2.340530
600.6485, 3.607605
601.1306, 3.392204
601.6127, 1.773018
602.0948, 0.4335780
602.5770, 0.4069370
603.0591, 1.204811
603.5412, 1.489944
604.0233, 0.6287690
604.5054, 0.2910690
604.9875, 0.8693620
605.4697, 1.587402
605.9518, 2.074684
606.4339, 2.339073
606.9160, 2.437195
607.3981, 2.342674
607.8802, 2.119141
608.3624, 1.790840
608.8445, 1.294136
609.3266, 1.318497
609.8087, 2.266472
610.2908, 3.378334
610.7729, 4.225792
611.2551, 4.788010
611.7372, 5.001030
612.2193, 4.744530
612.7014, 4.328728
613.1835, 3.911331
613.6656, 3.455231
614.1478, 2.740273
614.6299, 1.762146
615.1120, 1.148232
615.5941, 1.579842
616.0762, 3.041878
616.5583, 3.938080
617.0405, 3.937378
617.5226, 3.848297
618.0047, 3.775620
618.4868, 3.660530
618.9689, 3.340645
619.4510, 2.855080
619.9332, 2.546898
620.4153, 2.938858
620.8974, 3.749359
621.3795, 3.727623
621.8616, 2.697052
622.3438, 1.935165
622.8259, 1.901596
623.3080, 2.294266
623.7901, 2.689018
624.2722, 3.131386
624.7543, 3.619141
625.2365, 4.280617
625.7186, 4.765060
626.2007, 4.623337
626.6828, 4.096924
627.1649, 3.897568
627.6470, 4.332199
628.1292, 4.957802
628.6113, 4.995300
629.0934, 4.199944
629.5755, 3.583199
630.0576, 3.254547
630.5397, 3.218994
631.0219, 3.644638
631.5040, 4.246948
631.9861, 4.713409
632.4682, 4.953209
632.9503, 5.148964
633.4324, 5.548721
633.9146, 6.068230
634.3967, 6.317848
634.8788, 6.215279
635.3609, 6.062698
635.8430, 6.050079
636.3251, 6.171555
636.8073, 6.318886
637.2894, 6.298439
637.7715, 6.520294
638.2536, 7.320801
638.7357, 8.148033
639.2178, 8.638351
639.7000, 8.800507
640.1821, 8.645966
640.6642, 8.126480
641.1463, 7.656509
641.6284, 8.339729
642.1105, 10.58202
642.5927, 11.72305
643.0748, 10.75341
643.5569, 9.607841
644.0390, 9.247337
644.5211, 9.506638
645.0032, 10.14055
645.4854, 11.23354
645.9675, 12.33713
646.4496, 13.20582
646.9317, 13.83608
647.4138, 14.16287
647.8959, 14.21284
648.3781, 14.27001
648.8602, 14.55588
649.3423, 15.00103
649.8244, 15.32861
650.3065, 15.20748
650.7886, 15.47964
651.2708, 16.70617
651.7529, 17.85928
652.2350, 18.17731
652.7171, 17.77998
653.1992, 17.24001
653.6813, 16.80753
654.1635, 16.64690
654.6456, 17.12927
655.1277, 18.20237
655.6098, 19.22423
656.0919, 20.08203
656.5740, 20.83957
657.0562, 21.50362
657.5383, 22.09644
658.0204, 22.77393
658.5025, 23.56558
658.9846, 24.40208
659.4667, 25.30885
659.9489, 26.21500
660.4310, 27.03823
660.9131, 27.77798
661.3952, 28.50542
661.8773, 29.29360
662.3594, 30.08714
662.8416, 30.70271
663.3237, 31.10204
663.8058, 31.46741
664.2879, 31.79234
664.7700, 32.13474
665.2521, 32.44306
665.7343, 32.78909
666.2164, 33.42184
666.6985, 34.56982
667.1806, 35.81705
667.6627, 37.04187
668.1448, 38.11502
668.6270, 38.56175
669.1091, 38.35900
669.5912, 38.43100
670.0733, 39.63136
670.5554, 41.79892
671.0375, 43.84042
671.5197, 46.05941
672.0018, 47.60266
672.4839, 48.22333
672.9660, 48.33380
673.4481, 47.90811
673.9302, 47.19030
674.4124, 46.80177
674.8945, 47.07198
675.3766, 47.79300
675.8587, 49.10978
676.3408, 50.74829
676.8229, 51.13222
677.3051, 49.70399
677.7872, 48.50281
678.2693, 49.67020
678.7514, 52.87019
679.2335, 54.17350
679.7156, 51.61150
680.1978, 50.00906
680.6799, 50.43599
681.1620, 51.79008
681.6441, 53.67290
682.1262, 55.65495
682.6083, 56.76135
683.0905, 56.22662
683.5726, 54.86185
684.0547, 54.29480
684.5368, 54.52487
685.0189, 54.23927
685.5010, 52.96629
685.9832, 51.64478
686.4653, 51.12277
686.9474, 51.24875
687.4295, 51.20247
687.9116, 51.02321
688.3937, 50.58873
688.8759, 49.63142
689.3580, 48.55582
689.8401, 47.63170
690.3222, 46.97928
690.8043, 46.87605
691.2864, 47.58748
691.7686, 48.63683
692.2507, 48.84044
692.7328, 48.08997
693.2149, 47.18325
693.6970, 46.22980
694.1791, 45.13516
694.6613, 43.68494
695.1434, 42.06410
695.6255, 40.69354
696.1076, 39.78030
696.5897, 38.83720
697.0718, 37.31253
697.5540, 35.82174
698.0361, 35.33181
698.5182, 35.71445
699.0003, 35.96584
699.4824, 35.47124
699.9645, 34.45853
700.4467, 33.44481
700.9288, 32.41922
701.4109, 31.46567
701.8930, 30.68600
702.3751, 29.85790
702.8572, 28.56845
703.3394, 27.25745
703.8215, 26.82200
704.3036, 27.70666
704.7857, 28.39404
705.2678, 27.80287
705.7499, 26.60732
706.2321, 25.71790
706.7142, 25.15063
707.1963, 24.51045
707.6784, 23.51276
708.1605, 22.38872
708.6426, 21.79910
709.1248, 22.15482
709.6069, 21.72247
710.0890, 19.50481
710.5711, 17.66732
711.0532, 17.14655
711.5353, 17.32911
712.0175, 17.46460
712.4996, 17.40665
712.9817, 17.27958
713.4638, 17.01258
713.9459, 16.76111
714.4280, 17.07142
714.9102, 17.81757
715.3923, 17.87796
715.8744, 16.75973
716.3565, 15.27441
716.8386, 14.68718
717.3207, 15.17007
717.8029, 15.48032
718.2850, 15.85587
718.7671, 15.65739
719.2492, 14.05273
719.7313, 12.28008
720.2134, 11.69965
720.6956, 12.35450
721.1777, 13.00278
721.6598, 12.84203
722.1419, 12.46014
722.6240, 12.66590
723.1061, 13.21297
723.5883, 13.24444
724.0704, 12.55856
724.5525, 11.79922
725.0346, 11.64166
725.5167, 12.05449
725.9988, 11.99349
726.4810, 10.68152
726.9631, 10.07230
727.4452, 11.23923
727.9273, 12.45152
728.4094, 12.09782
728.8915, 10.44679
729.3737, 9.189812
729.8558, 9.377380
730.3379, 9.922226
730.8200, 9.554146
731.3021, 8.625023
731.7842, 8.204178
732.2664, 8.469223
732.7485, 8.683769
733.2306, 8.303612
733.7127, 7.434593
734.1948, 6.596954
734.6769, 5.483444
735.1591, 5.011276
735.6412, 5.872925
736.1233, 6.622681
736.6054, 6.403992
737.0875, 5.601852
737.5696, 4.941978
738.0518, 4.623291
738.5339, 4.617134
739.0160, 5.248070
739.4981, 6.038040
739.9802, 5.883995
740.4623, 4.853813
740.9445, 4.205086
741.4266, 4.622536
741.9087, 5.498978
742.3908, 5.728203
742.8729, 5.136581
743.3550, 4.644821
743.8372, 4.236923
744.3193, 3.956337
744.8014, 3.967834
745.2835, 4.023178
745.7656, 3.737343
746.2477, 3.096802
746.7299, 2.721191
747.2120, 3.124649
747.6941, 3.836731
748.1762, 4.537476
748.6583, 5.092155
749.1404, 4.933899
749.6226, 3.918625
750.1047, 2.913078
750.5868, 2.873222
751.0689, 3.673706
751.5510, 3.922661
752.0331, 3.406990
752.5153, 2.744598
752.9974, 1.524490
753.4795, 0.6304170
753.9616, 0.9540250
754.4437, 2.096313
754.9258, 2.763580
755.4080, 2.457222
755.8901, 1.795937
756.3722, 0.8741300
756.8543, 1.8866999E-02
757.3364, 0.1550750
757.8185, 0.3084640
758.3007, 0.7915570
758.7828, 0.9171680
759.2649, 0.8700410
759.7470, 1.117142
760.2291, 1.814156
760.7112, 2.024490
761.1934, 1.402458
761.6755, 0.7984160
762.1576, 0.7292790
762.6397, 0.8480380
763.1218, 0.7464290
763.6039, 0.3864520
764.0861, 0.1558460
764.5682, 1.341469
765.0503, 2.251877
765.5324, 1.891823
766.0145, 0.7779690
766.4966, 6.3675001E-02
766.9788, 0.3370670
767.4609, 0.3845520
767.9430, 0.5449140
768.4251, 0.7788930
768.9072, 0.9278340
769.3893, 1.033409
769.8715, 0.7682800
770.3536, 0.3102720
770.8357, 1.265831
771.3178, 0.9123230
771.7999, 0.4218140
772.2820, 1.019684
772.7642, 0.1442180
773.2463, 0.6117550
773.7284, 0.6983110
774.2105, 0.5814060
774.6926, 0.7328110
775.1747, 1.059265
775.6569, 1.115349
776.1390, 0.6551970
776.6211, 7.4982002E-02
777.1032, 3.8600001E-03
777.5853, 0.3058700
778.0674, 0.2308810
778.5496, 0.3687520
779.0317, 0.4968570
779.5138, 0.5963900
779.9959, 0.6180742
780.4780, 0.5799912
780.9601, 0.6075440
781.4423, 0.3564220
781.9244, 0.3319320
782.4065, 0.1491170
782.8886, 5.3390998E-02
783.3707, 5.7098001E-02
783.8528, 0.3858180
784.3350, 0.9024510
784.8171, 1.294510
785.2992, 1.513290
785.7813, 1.352318
786.2634, 1.953932
786.7455, 1.698433
787.2277, 2.535774
787.7098, 2.071732
788.1919, 1.596443
788.6740, 2.210167
789.1561, 3.457039
789.6382, 3.549576
790.1204, 1.702576
790.6025, 0.6112440
791.0846, 1.072197
791.5667, 1.585876
792.0488, 1.345810
792.5309, 0.8072510
793.0131, 0.7059250
793.4952, 1.248184
793.9773, 1.720863
794.4594, 1.626976
794.9415, 1.454842
795.4236, 1.767265
795.9058, 2.357841
796.3879, 2.638924
796.8700, 2.458267
797.3521, 2.268990
797.8342, 2.577377
798.3163, 3.266647
798.7985, 3.762398
799.2806, 4.048653
799.7627, 4.122177
800.2448, 3.729958
800.7269, 3.550964
801.2090, 4.200607
801.6912, 5.597382
802.1733, 7.239944
802.6554, 10.13473
803.1375, 11.68232
803.6196, 10.32431
804.1017, 8.384804
804.5839, 7.349167
805.0660, 7.122543
805.5481, 7.243057
806.0302, 7.538605
806.5123, 7.814331
806.9944, 7.770599
807.4766, 7.587761
807.9587, 7.846832
808.4408, 8.498260
808.9229, 8.627708
809.4050, 7.799049
809.8871, 7.021957
810.3693, 7.655014
810.8514, 9.674782
811.3335, 10.62869
811.8156, 9.892075
812.2977, 9.128716
812.7798, 8.298218
813.2620, 7.773361
813.7441, 8.105446
814.2262, 8.940376
814.7083, 9.214958
815.1904, 8.339050
815.6725, 7.642807
816.1547, 8.036079
816.6368, 8.881096
817.1189, 9.570900
817.6010, 10.03306
818.0831, 10.30704
818.5652, 10.40871
819.0474, 10.27406
819.5295, 9.659142
820.0116, 8.668556
820.4937, 8.348763
820.9758, 8.814140
821.4579, 9.243889
821.9401, 9.291321
822.4222, 9.303566
822.9043, 9.930687
823.3864, 11.18631
823.8685, 11.58679
824.3506, 10.19003
824.8328, 9.196938
825.3149, 9.232094
825.7970, 9.524239
826.2791, 9.600006
826.7612, 9.457603
827.2433, 9.246162
827.7255, 9.027382
828.2076, 8.652550
828.6897, 7.698181
829.1718, 6.710457
829.6539, 6.833092
830.1360, 7.720329
830.6182, 7.649376
831.1003, 5.916588
831.5824, 4.273376
832.0645, 4.989853
832.5466, 7.772774
833.0287, 9.096840
833.5109, 8.643234
833.9930, 7.700256
834.4751, 5.911514
834.9572, 4.431297
835.4393, 4.641647
835.9214, 5.940140
836.4036, 6.500526
836.8857, 5.734940
837.3678, 4.988647
837.8499, 4.550491
838.3320, 4.323143
838.8141, 4.468010
839.2963, 4.742981
839.7784, 4.759300
840.2605, 4.410393
840.7426, 3.891434
841.2247, 3.250114
841.7068, 2.596130
842.1890, 2.084564
842.6711, 1.756554
843.1532, 1.964813
843.6353, 2.844147
844.1174, 3.695763
844.5995, 3.821411
845.0817, 3.277107
845.5638, 2.469208
846.0459, 1.114822
846.5280, 0.2993010
847.0101, 0.3610150
847.4922, 0.6401820
847.9744, 1.000885
848.4565, 1.261185
848.9386, 1.089149
849.4207, 0.3411560
849.9028, 5.6526002E-02
850.3849, 0.4164810
850.8671, 1.006599
851.3492, 1.423149
851.8313, 1.614250
852.3134, 1.412331
852.7955, 0.9034650
853.2776, 0.5926820
853.7598, 0.9053420
854.2419, 1.393082
854.7240, 1.368149
855.2061, 0.9233700
855.6882, 0.3258510
856.1703, 0.3781810
856.6525, 2.2602571E-02
857.1346, 0.5172120
857.6167, 2.9456999E-02
858.0988, 3.8619999E-02
858.5809, 0.6487730
859.0630, 1.060982
859.5452, 1.170265
860.0273, 1.270645
860.5094, 1.617302
860.9915, 1.853439
861.4736, 1.551628
861.9557, 0.8096390
862.4379, 0.2406310
862.9200, 4.6021000E-02
863.4021, 9.3902998E-02
863.8842, 0.2756350
864.3663, 0.4596410
864.8484, 0.6364060
865.3306, 0.7820280
865.8127, 0.8070300
866.2948, 0.6790160
866.7769, 0.6456830
867.2590, 1.212387
867.7411, 1.940414
868.2233, 1.709389
868.7054, 0.7033080
869.1875, 4.1855000E-02
869.6696, 4.6050999E-02
870.1517, 0.3249590
870.6339, 0.5001070
871.1160, 0.6562500
871.5981, 1.247528
872.0802, 2.495865
872.5623, 3.399529
873.0444, 3.902290
873.5266, 3.969925
874.0087, 3.218735
874.4908, 2.175285
874.9729, 1.830772
875.4550, 2.292725
875.9371, 2.837395
876.4193, 3.444817
876.9014, 4.027161
877.3835, 4.718239
877.8656, 5.244255
878.3477, 5.128418
878.8298, 4.523537
879.3120, 4.195183
879.7941, 4.581268
880.2762, 5.216736
880.7583, 5.573021
881.2404, 5.904976
881.7225, 7.098541
882.2047, 8.826668
882.6868, 9.137962
883.1689, 7.195938
883.6510, 4.841660
884.1331, 4.512825
884.6152, 5.898033
885.0974, 6.677452
885.5795, 6.810097
886.0616, 6.525146
886.5437, 5.636192
887.0258, 4.948586
887.5079, 5.210472
887.9901, 6.183495
888.4722, 6.923492
888.9543, 7.467659
889.4364, 7.702095
889.9185, 7.297729
890.4006, 6.972130
890.8828, 7.145020
891.3649, 7.473389
891.8470, 7.514481
892.3291, 7.232780
892.8112, 6.943733
893.2933, 6.534218
893.7755, 6.426758
894.2576, 7.346985
894.7397, 8.432106
895.2218, 8.322464
895.7039, 7.291542
896.1860, 6.838249
896.6682, 7.705940
897.1503, 8.797195
897.6324, 8.703178
898.1145, 7.779755
898.5966, 6.833984
899.0787, 5.969521
899.5609, 6.110519
900.0430, 7.628296
900.5251, 9.015320
901.0072, 8.690193
901.4893, 7.127213
901.9714, 6.812653
902.4536, 8.410011
902.9357, 8.680473
903.4178, 6.337364
903.8999, 4.467018
904.3820, 5.158760
904.8641, 7.063324
905.3463, 7.876877
905.8284, 7.500465
906.3105, 6.943069
906.7926, 5.693977
907.2747, 5.017586
907.7568, 5.841232
908.2390, 6.959488
908.7211, 7.278831
909.2032, 6.907501
909.6853, 6.455750
910.1674, 6.046463
910.6495, 5.970032
911.1317, 6.905228
911.6138, 7.899948
912.0959, 7.484787
912.5780, 6.302498
913.0601, 6.162003
913.5422, 7.426666
914.0244, 8.595734
914.5065, 8.308716
914.9886, 7.291527
915.4707, 6.990379
915.9528, 7.294724
916.4349, 7.672600
916.9171, 8.064171
917.3992, 8.416428
917.8813, 8.689140
918.3634, 8.913620
918.8455, 9.257751
919.3276, 9.805000
919.8098, 9.465630
920.2919, 7.630699
920.7740, 6.428284
921.2561, 6.728607
921.7382, 7.324112
922.2203, 7.174454
922.7025, 6.503494
923.1846, 6.225952
923.6667, 6.688728
924.1488, 6.784027
924.6309, 5.871971
925.1130, 5.184891
925.5952, 5.701035
926.0773, 6.502502
926.5594, 6.309212
927.0415, 5.121994
927.5236, 4.186523
928.0057, 4.073723
928.4879, 4.288170
928.9700, 4.854271
929.4521, 5.327675
929.9342, 5.098816
930.4163, 4.311089
930.8984, 3.323708
931.3806, 2.309067
931.8627, 1.762123
932.3448, 2.528252
932.8269, 3.904045
933.3090, 4.540932
933.7911, 4.491402
934.2733, 3.715561
934.7554, 2.274910
935.2375, 1.223244
935.7196, 1.293182
936.2017, 2.076241
936.6838, 2.903412
937.1660, 3.821426
937.6481, 3.660347
938.1302, 2.033905
938.6123, 1.119595
939.0944, 1.901920
939.5765, 3.100948
940.0587, 3.426704
940.5408, 3.005947
941.0229, 2.743721
941.5050, 2.696503
941.9871, 2.704166
942.4692, 2.729313
942.9514, 2.848515
943.4335, 3.254223
943.9156, 3.679375
944.3977, 3.740551
944.8798, 3.423130
945.3619, 3.156921
945.8441, 2.653179
946.3262, 2.710129
946.8083, 4.336174
947.2904, 6.009274
947.7725, 6.335075
948.2546, 5.684822
948.7368, 4.997234
949.2189, 4.542366
949.7010, 4.579887
950.1831, 5.867477
950.6652, 7.195698
951.1473, 7.152962
951.6295, 6.342575
952.1116, 5.861790
952.5937, 5.833542
953.0758, 5.727493
953.5579, 5.206253
954.0400, 4.768093
954.5222, 5.398262
955.0043, 6.594402
955.4864, 6.723282
955.9685, 5.883327
956.4506, 5.215794
956.9327, 5.061672
957.4149, 5.056240
957.8970, 4.839195
958.3791, 4.602711
958.8612, 5.092636
959.3433, 6.400387
959.8254, 7.022766
960.3076, 6.725849
960.7897, 6.310898
961.2718, 6.019966
961.7539, 5.983395
962.2360, 6.443001
962.7181, 7.367699
963.2003, 7.992912
963.6824, 8.173866
964.1645, 8.355591
964.6466, 8.648266
965.1287, 8.908653
965.6108, 8.554855
966.0930, 8.243027
966.5751, 9.220825
967.0572, 11.69280
967.5393, 13.39549
968.0214, 13.40952
968.5035, 13.54226
968.9857, 14.10482
969.4678, 15.12240
969.9499, 16.92098
970.4320, 19.11127
970.9141, 20.79852
971.3962, 21.67558
971.8784, 22.87714
972.3605, 24.95384
972.8426, 27.54193
973.3247, 30.98560
973.8068, 34.28005
974.2889, 35.81904
974.7711, 36.01409
975.2532, 36.82293
975.7353, 39.17694
976.2174, 42.32925
976.6995, 45.89233
977.1816, 49.49132
977.6638, 52.64196
978.1459, 55.38454
978.6280, 57.77235
979.1101, 59.88117
979.5922, 61.94723
980.0743, 64.14854
980.5565, 66.33435
981.0386, 68.25556
981.5207, 69.92803
982.0028, 71.41673
982.4849, 72.72381
982.9670, 73.95864
983.4492, 75.14948
983.9313, 75.72875
984.4134, 75.06261
984.8955, 73.61921
985.3776, 73.12016
985.8597, 73.63921
986.3419, 72.57293
986.8240, 69.55209
987.3061, 66.21635
987.7882, 63.15702
988.2703, 60.28090
988.7524, 57.56052
989.2346, 54.99439
989.7167, 52.21983
990.1988, 49.06296
990.6809, 46.18479
991.1630, 43.74465
991.6451, 41.39864
992.1273, 39.11145
992.6094, 36.69611
993.0915, 33.73906
993.5736, 30.19437
994.0557, 27.21243
994.5378, 24.98095
995.0200, 23.06639
995.5021, 21.61440
995.9842, 20.28622
996.4663, 19.04199
996.9484, 17.76584
997.4305, 16.27024
997.9127, 14.56544
998.3948, 12.81998
998.8769, 10.40150
999.3590, 8.799271
999.8411, 9.047222
1000.323, 9.753498
1000.805, 10.09505
1001.287, 9.982414
1001.770, 9.233200
1002.252, 7.750175
1002.734, 6.787819
1003.216, 7.333618
1003.698, 8.000191
1004.180, 8.130341
1004.662, 7.852356
1005.144, 7.135815
1005.627, 6.181759
1006.109, 5.387314
1006.591, 4.882404
1007.073, 4.704979
1007.555, 5.246868
1008.037, 5.783787
1008.519, 5.414337
1009.001, 4.652405
1009.483, 4.517525
1009.966, 4.883904
1010.448, 4.685532
1010.930, 3.396099
1011.412, 2.039360
1011.894, 1.620655
1012.376, 1.799461
1012.858, 2.266632
1013.340, 2.848923
1013.823, 3.162788
1014.305, 3.145470
1014.787, 2.870083
1015.269, 2.358536
1015.751, 1.826263
1016.233, 1.528896
1016.715, 1.456928
1017.197, 1.683960
1017.679, 2.129742
1018.162, 2.482895
1018.644, 2.663303
1019.126, 2.549088
1019.608, 2.028362
1020.090, 1.413326
1020.572, 1.415939
1021.054, 1.870506
1021.536, 1.344219
1022.018, 0.1159930
1022.501, 0.8430210
1022.983, 0.4151420
1023.465, 0.4021910
1023.947, 1.131386
1024.429, 1.617077
1024.911, 1.398773
1025.393, 0.4629750
1025.875, 3.3259999E-03
1026.358, 1.4702000E-02
1026.840, 0.1154250
1027.322, 0.3194730
1027.804, 0.6163180
1028.286, 1.107635
1028.768, 1.543739
1029.250, 1.182858
1029.732, 0.1545720
1030.214, 0.8949740
1030.697, 1.002502
1031.179, 0.4993860
1031.661, 1.034195
1032.143, 0.6240910
1032.625, 1.539188
1033.107, 0.1567150
1033.589, 0.9895440
1034.071, 0.7764590
1034.553, 0.5109370
1035.036, 0.1133580
1035.518, 0.1703220
1036.000, 0.2615620
1036.482, 0.2436140
1036.964, 0.1719360
1037.446, 4.4018000E-02
1037.928, 0.1663820
1038.410, 0.5468980
1038.893, 0.7079350
1039.375, 0.4898450
1039.857, 0.3063960
1040.339, 0.3647800
1040.821, 0.3725660
1041.303, 4.7371000E-02
1041.785, 0.4899790
1042.267, 0.9461330
1042.750, 1.468647
1043.232, 1.436310
1043.714, 1.582650
1044.196, 0.6811030
1044.678, 1.162788
1045.160, 1.213261
1045.642, 0.4774250
1046.124, 0.6056560
1046.606, 0.9001540
1047.089, 5.5450000E-02
1047.571, 0.3494830
1048.053, 8.7752998E-02
1048.535, 0.5393680
1049.017, 2.162914
1049.499, 3.476303
1049.981, 3.136551
1050.463, 1.812313
1050.945, 0.9997140
1051.428, 0.9015620
1051.910, 1.083878
1052.392, 2.141201
1052.874, 2.568642
1053.356, 1.146965
1053.838, 0.3851360
1054.320, 0.5957950
1054.802, 8.8459000E-02
1055.285, 0.5556340
1055.767, 0.5974730
1056.249, 0.9298020
1056.731, 2.305870
1057.213, 3.249477
1057.695, 2.892067
1058.177, 2.213810
1058.659, 1.928394
1059.141, 1.904789
1059.624, 1.715355
1060.106, 1.287460
1060.588, 1.208450
1061.070, 2.044823
1061.552, 2.755402
1062.034, 2.825935
1062.516, 2.713116
1062.998, 2.765232
1063.480, 2.893932
1063.963, 2.932228
1064.445, 2.843227
1064.927, 2.577866
1065.409, 1.691620
1065.891, 1.206455
1066.373, 1.972393
1066.855, 2.887386
1067.337, 3.169640
1067.820, 3.011833
1068.302, 2.636536
1068.784, 2.157410
1069.266, 1.976330
1069.748, 2.438206
1070.230, 2.921051
1070.712, 3.331898
1071.194, 3.481579
1071.677, 2.826622
1072.159, 2.045460
1072.641, 2.408756
1073.123, 3.759277
1073.605, 4.264484
1074.087, 2.815254
1074.569, 1.520504
1075.051, 1.433949
1075.533, 1.772419
1076.016, 2.120316
1076.498, 2.458572
1076.980, 2.772629
1077.462, 3.099403
1077.944, 3.674351
1078.426, 4.858421
1078.908, 5.275463
1079.390, 3.451103
1079.873, 1.582207
1080.355, 1.096169
1080.837, 1.404949
1081.319, 2.017689
1081.801, 2.601246
1082.283, 2.403259
1082.765, 0.9756470
1083.247, 0.2668190
1083.729, 1.968472
1084.212, 3.671379
1084.694, 3.860352
1085.176, 3.444675
1085.658, 3.293743
1086.140, 3.390640
1086.622, 3.452072
1087.104, 3.410999
1087.586, 3.289585
1088.068, 3.093979
1088.551, 2.800694
1089.033, 2.263195
1089.515, 1.797081
1089.997, 1.594154
1090.479, 1.642265
1090.961, 1.923912
1091.443, 2.386063
1091.925, 2.784554
1092.408, 2.968201
1092.890, 3.132751
1093.372, 3.515617
1093.854, 3.704826
1094.336, 3.188465
1094.818, 2.412445
1095.300, 2.067051
1095.782, 2.178017
1096.265, 2.237614
1096.747, 2.121014
1097.229, 1.962513
1097.711, 1.677208
1098.193, 1.479698
1098.675, 1.430618
1099.157, 1.620892
1099.639, 2.447296
1100.121, 3.599735
1100.604, 3.778618
1101.086, 2.220596
1101.568, 1.206207
1102.050, 1.713940
1102.532, 2.326321
1103.014, 2.635563
1103.496, 2.691151
1103.978, 2.326511
1104.460, 1.719021
1104.943, 1.475292
1105.425, 1.798035
1105.907, 1.811424
1106.389, 0.8079300
1106.871, 0.2270740
1107.353, 0.8540690
1107.835, 1.694965
1108.317, 1.925575
1108.800, 1.861988
1109.282, 2.243870
1109.764, 3.160126
1110.246, 3.363979
1110.728, 2.145020
1111.210, 1.091846
1111.692, 0.2218550
1112.174, 0.2840120
1112.656, 0.1501880
1113.139, 0.3092000
1113.621, 0.7720990
1114.103, 1.235382
1114.585, 1.686924
1115.067, 2.344925
1115.549, 2.572403
1116.031, 2.054684
1116.513, 1.549404
1116.995, 1.276287
1117.478, 1.121784
1117.960, 0.9434320
1118.442, 0.8185350
1118.924, 1.034798
1119.406, 1.777145
1119.888, 2.089020
1120.370, 1.762981
1120.852, 1.427681
1121.335, 1.154926
1121.817, 1.026920
1122.299, 1.227081
1122.781, 1.446644
1123.263, 0.9730340
1123.745, 0.2267760
1124.227, 0.1341780
1124.709, 1.934643
1125.192, 2.670406
1125.674, 1.066181
1126.156, 0.1146320
1126.638, 1.392513
1127.120, 3.060337
1127.602, 2.750225
1128.084, 3.227784
1128.566, 3.257235
1129.048, 2.271214
1129.531, 2.563046
1130.013, 1.262177
1130.495, 0.6088640
1130.977, 1.393227
1131.459, 2.420013
1131.941, 2.747372
1132.423, 2.566494
1132.905, 2.162254
1133.387, 1.584667
1133.870, 1.660748
1134.352, 2.357620
1134.834, 2.748955
1135.316, 2.654892
1135.798, 2.228291
1136.280, 1.520500
1136.762, 1.026653
1137.244, 1.520737
1137.727, 2.606594
1138.209, 3.037029
1138.691, 2.963451
1139.173, 2.919205
1139.655, 2.949928
1140.137, 2.974277
1140.619, 2.942833
1141.101, 2.724838
1141.583, 2.233795
1142.066, 1.665215
1142.548, 1.266926
1143.030, 1.082470
1143.512, 1.407898
1143.994, 1.982067
1144.476, 2.069088
1144.958, 1.603634
1145.440, 1.009262
1145.922, 0.4829220
1146.405, 0.1525380
1146.887, 0.1358950
1147.369, 0.3741950
1147.851, 1.024815
1148.333, 1.746346
1148.815, 2.052052
1149.297, 1.965145
1149.779, 1.573067
1150.262, 0.9583240
1150.744, 0.6380230
1151.226, 1.140797
1151.708, 1.636452
1152.190, 1.417965
1152.672, 1.138004
1153.154, 1.546219
1153.636, 2.142460
1154.119, 2.069221
1154.601, 1.397289
1155.083, 0.9132500
1155.565, 0.8218380
1156.047, 0.9650880
1156.529, 1.528553
1157.011, 2.012821
1157.493, 2.352703
1157.975, 2.381332
1158.458, 1.615135
1158.940, 0.5598680
1159.422, 0.3905910
1159.904, 1.308403
1160.386, 1.641399
1160.868, 0.6227570
1161.350, 2.6531000E-02
1161.832, 0.1467900
1162.314, 0.3639220
1162.797, 0.3146130
1163.279, 0.1603890
1163.761, 6.1889999E-02
1164.243, 2.3419999E-03
1164.725, 0.1671070
1165.207, 0.6785430
1165.689, 0.2562940
1166.171, 1.592323
1166.654, 2.891701
1167.136, 3.132236
1167.618, 2.794708
1168.100, 2.051018
1168.582, 1.251968
1169.064, 1.035107
1169.546, 1.315331
1170.028, 1.320107
1170.510, 1.071140
1170.993, 0.8859370
1171.475, 0.7818300
1171.957, 0.9731480
1172.439, 1.554996
1172.921, 2.041042
1173.403, 1.970058
1173.885, 2.202952
1174.367, 1.637093
1174.849, 1.827484
1175.332, 1.359779
1175.814, 0.4910620
1176.296, 0.3884810
1176.778, 1.115498
1177.260, 1.707809
1177.742, 1.696110
1178.224, 1.466515
1178.706, 1.282406
1179.189, 1.208736
1179.671, 1.352135
1180.153, 1.646683
1180.635, 2.149078
1181.117, 2.662624
1181.599, 2.823166
1182.081, 2.571495
1182.563, 1.832802
1183.046, 0.2334630
1183.528, 0.8321080
1184.010, 8.8783003E-02
1184.492, 0.9581790
1184.974, 1.352921
1185.456, 1.437893
1185.938, 1.613258
1186.420, 1.819565
1186.902, 1.799511
1187.385, 1.496098
1187.867, 1.218792
1188.349, 1.061611
1188.831, 0.8855360
1189.313, 0.4625400
1189.795, 0.2471500
1190.277, 0.7172970
1190.759, 1.278797
1191.241, 1.157555
1191.724, 0.6488190
1192.206, 1.019096
1192.688, 2.724682
1193.170, 3.319321
1193.652, 2.469563
1194.134, 1.439613
1194.616, 0.2760620
1195.098, 0.2985800
1195.581, 0.2508200
1196.063, 1.171711
1196.545, 1.415489
1197.027, 1.161366
1197.509, 1.280323
1197.991, 1.721790
1198.473, 1.509026
1198.955, 0.6601180
1199.438, 0.2964780
1199.920, 0.6919330
1200.402, 1.102905
1200.884, 1.028965
1201.366, 0.7407990
1201.848, 0.4358290
1202.330, 0.2647510
1202.812, 0.6999590
1203.294, 0.6909162
1203.776, 0.9517521
1204.259, 1.397224
1204.741, 1.561466
1205.223, 2.216171
1205.705, 2.674530
1206.187, 2.521252
1206.669, 2.173706
1207.151, 1.591244
1207.633, 1.135193
1208.116, 1.166191
1208.598, 1.379292
1209.080, 1.460785
1209.562, 1.399685
1210.044, 1.254005
1210.526, 1.032372
1211.008, 0.8735280
1211.490, 0.7589720
1211.973, 0.8071210
1212.455, 1.315742
1212.937, 1.637791
1213.419, 1.230991
1213.901, 0.7943950
1214.383, 1.147942
1214.865, 1.983959
1215.347, 2.214737
1215.829, 1.707706
1216.312, 1.561337
1216.794, 1.895901
1217.276, 1.989895
1217.758, 1.703934
1218.240, 1.200630
1218.722, 0.4907230
1219.204, 0.1022110
1219.686, 0.7509610
1220.168, 0.5531133
1220.651, 0.9302557
1221.133, 1.372700
1221.615, 1.575401
1222.097, 2.371845
1222.579, 2.504414
1223.061, 1.813698
1223.543, 1.079124
1224.025, 0.6354260
1224.508, 0.5008700
1224.990, 0.9457510
1225.472, 1.415573
1225.954, 1.350662
1226.436, 1.004498
1226.918, 0.4518280
1227.400, 5.0331000E-02
1227.882, 4.8790001E-03
1228.365, 0.4880680
1228.847, 0.6708410
1229.329, 0.1774860
1229.811, 1.6167000E-02
1230.293, 0.7874760
1230.775, 1.487003
1231.257, 1.996254
1231.739, 2.104061
1232.221, 1.315098
1232.703, 0.2975010
1233.186, 0.1119460
1233.668, 2.5784001E-02
1234.150, 0.3371700
1234.632, 0.9039230
1235.114, 1.273701
1235.596, 1.598072
1236.078, 1.545238
1236.560, 0.9890440
1237.043, 0.5010910
1237.525, 0.4181860
1238.007, 0.5077710
1238.489, 0.4729540
1238.971, 0.3865660
1239.453, 0.4003330
1239.935, 0.5506780
1240.417, 1.050449
1240.900, 1.777740
1241.382, 2.466286
1241.864, 2.977642
1242.346, 3.131981
1242.828, 2.837627
1243.310, 2.285145
1243.792, 1.222481
1244.274, 0.4340900
1244.756, 0.9456900
1245.239, 1.655338
1245.721, 1.396656
1246.203, 0.6644100
1246.685, 0.2440260
1247.167, 0.2129060
1247.649, 0.3952600
1248.131, 0.8376500
1248.613, 1.235947
1249.095, 1.651894
1249.578, 1.865738
1250.060, 1.810646
1250.542, 1.573338
1251.024, 1.057743
1251.506, 0.5975300
1251.988, 0.5913770
1252.470, 0.9752920
1252.952, 1.618805
1253.435, 2.550205
1253.917, 2.748230
1254.399, 2.230915
1254.881, 1.971233
1255.363, 2.130707
1255.845, 2.339035
1256.327, 2.415684
1256.809, 2.119965
1257.292, 0.9668270
1257.774, 2.3094000E-02
1258.256, 1.194813
1258.738, 2.953243
1259.220, 2.606079
1259.702, 1.170097
1260.184, 0.5925180
1260.666, 0.8499220
1261.148, 0.8786050
1261.630, 0.3873370
1262.113, 0.1032680
1262.595, 0.6486470
1263.077, 0.9013100
1263.559, 6.4792998E-02
1264.041, 0.6433980
1264.523, 0.5737760
1265.005, 1.918118
1265.487, 1.811142
1265.970, 0.8387640
1266.452, 0.3338810
1266.934, 0.3028530
1267.416, 0.1769070
1267.898, 0.1160960
1268.380, 0.2141760
1268.862, 1.306122
1269.344, 1.717350
1269.827, 0.9734650
1270.309, 0.2093050
1270.791, 0.2575300
1271.273, 0.6319540
1271.755, 0.7057530
1272.237, 0.5826150
1272.719, 0.2985120
1273.201, 8.8088997E-02
1273.683, 0.6526180
1274.166, 1.568459
1274.648, 1.589420
1275.130, 0.4857100
1275.612, 0.3330650
1276.094, 1.728039
1276.576, 2.739388
1277.058, 2.207630
1277.540, 1.655952
1278.022, 1.443928
1278.505, 1.422325
1278.987, 1.752651
1279.469, 2.020527
1279.951, 1.566612
1280.433, 0.7282710
1280.915, 0.8508340
1281.397, 0.5803829
1281.879, 0.2824934
1282.362, 0.7961880
1282.844, 8.9996003E-02
1283.326, 0.4743580
1283.808, 0.7679900
1284.290, 0.4754830
1284.772, 9.2570998E-02
1285.254, 4.1499999E-03
1285.736, 0.0000000E+00
##END=



