##NAMES=Eglestonite
##RRUFFID=R060612
##IDEAL CHEMISTRY=Hg^1+^_6_OCl_3_(OH)
##LOCALITY=Cahill mine, Poverty Peak District, Humboldt County, Nevada, USA
##OWNER=RRUFF
##SOURCE=Michael Scott
##DESCRIPTION=Brown fragments
##STATUS=The identification of this mineral is confirmed by single-crystal X-ray diffraction and chemical analysis.
##URL=rruff.info/R060612
##MEASURED CHEMISTRY=Hg^1+^_6.00_OCl_3.00_(OH) ; O,H not measured but estimated by difference and stoichiometry
89.97791, 0.0000000E+00
90.46002, 0.1475050
90.94214, 0.3935910
91.42426, 0.5082340
91.90637, 0.5094940
92.38849, 0.4683830
92.87061, 0.4448110
93.35272, 0.4643270
93.83484, 0.4514330
94.31696, 0.3840270
94.79907, 0.2916100
95.28119, 0.2507620
95.76331, 0.3469040
96.24542, 0.5907670
96.72754, 0.6276890
97.20966, 0.4951190
97.69177, 0.3856160
98.17389, 0.3340530
98.65601, 0.3341830
99.13812, 0.3101890
99.62024, 0.2602660
100.1024, 0.1928420
100.5845, 0.1136820
101.0666, 1.4613000E-02
101.5487, 6.9402002E-02
102.0308, 0.1429570
102.5129, 0.2339420
102.9951, 0.1953390
103.4772, 3.2373000E-02
103.9593, 0.3551560
104.4414, 0.5511600
104.9235, 0.5921230
105.4056, 0.5645060
105.8878, 0.4997590
106.3699, 0.3363920
106.8520, 0.2400900
107.3341, 0.2160010
107.8162, 0.2596480
108.2983, 0.3566000
108.7805, 0.5458590
109.2626, 0.7586280
109.7447, 0.9568400
110.2268, 1.132579
110.7089, 1.303868
111.1910, 1.491297
111.6732, 1.692996
112.1553, 1.832448
112.6374, 1.862297
113.1195, 1.846437
113.6016, 1.836496
114.0837, 1.842681
114.5659, 1.856377
115.0480, 1.860968
115.5301, 1.851213
116.0122, 1.891562
116.4943, 2.046005
116.9764, 2.252855
117.4586, 2.433917
117.9407, 2.556659
118.4228, 2.648645
118.9049, 2.714176
119.3870, 2.744930
119.8691, 2.790616
120.3513, 2.879986
120.8334, 3.005765
121.3155, 3.153169
121.7976, 3.380221
122.2797, 3.596242
122.7618, 3.688514
123.2440, 3.598560
123.7261, 3.482751
124.2082, 3.497569
124.6903, 3.617759
125.1724, 3.749333
125.6545, 3.864135
126.1367, 3.945189
126.6188, 3.949150
127.1009, 3.832325
127.5830, 3.680406
128.0651, 3.622873
128.5472, 3.656632
129.0294, 3.725358
129.5115, 3.825755
129.9936, 3.935556
130.4757, 3.958794
130.9578, 3.832020
131.4399, 3.621888
131.9221, 3.516182
132.4042, 3.524856
132.8863, 3.566424
133.3684, 3.556857
133.8505, 3.497109
134.3326, 3.450947
134.8148, 3.443548
135.2969, 3.468763
135.7790, 3.476045
136.2611, 3.459854
136.7432, 3.438481
137.2253, 3.437794
137.7075, 3.463874
138.1896, 3.481639
138.6717, 3.484576
139.1538, 3.474375
139.6359, 3.420718
140.1180, 3.300571
140.6002, 3.159505
141.0823, 3.077461
141.5644, 3.080502
142.0465, 3.084485
142.5286, 3.060382
143.0107, 3.004650
143.4929, 2.926326
143.9750, 2.789676
144.4571, 2.642281
144.9392, 2.610184
145.4213, 2.809605
145.9034, 2.975516
146.3856, 2.988468
146.8677, 2.650164
147.3498, 2.497484
147.8319, 2.635818
148.3140, 2.974822
148.7961, 3.194777
149.2783, 3.211905
149.7604, 3.173086
150.2425, 3.141383
150.7246, 3.081042
151.2067, 3.069571
151.6888, 3.150854
152.1710, 3.299054
152.6531, 3.385327
153.1352, 3.322828
153.6173, 3.245656
154.0994, 3.226415
154.5815, 3.309156
155.0637, 3.413652
155.5458, 3.525911
156.0279, 3.647635
156.5100, 3.793726
156.9921, 3.983179
157.4742, 4.189932
157.9564, 4.395203
158.4385, 4.499443
158.9206, 4.691336
159.4027, 5.048245
159.8848, 5.565376
160.3669, 6.115622
160.8491, 6.687700
161.3312, 7.275519
161.8133, 7.867390
162.2954, 8.525311
162.7775, 9.128531
163.2596, 9.625536
163.7418, 10.01420
164.2239, 10.31389
164.7060, 10.44145
165.1881, 10.50951
165.6702, 10.65548
166.1523, 11.01423
166.6345, 11.41249
167.1166, 11.71614
167.5987, 11.91777
168.0808, 12.13797
168.5629, 12.43079
169.0450, 12.80154
169.5272, 13.24971
170.0093, 13.86171
170.4914, 14.50964
170.9735, 15.02083
171.4556, 15.36220
171.9377, 15.78895
172.4199, 16.47920
172.9020, 17.41434
173.3841, 18.52024
173.8662, 19.78514
174.3483, 21.20594
174.8304, 22.75461
175.3126, 24.39426
175.7947, 26.27569
176.2768, 28.53730
176.7589, 31.16652
177.2410, 34.08900
177.7231, 37.55542
178.2053, 41.24914
178.6874, 44.87298
179.1695, 48.69743
179.6516, 51.45466
180.1337, 51.67637
180.6158, 49.51848
181.0980, 45.80351
181.5801, 39.96467
182.0622, 32.99300
182.5443, 26.87416
183.0264, 21.85482
183.5085, 17.77869
183.9907, 14.60692
184.4728, 12.29238
184.9549, 10.68114
185.4370, 9.890471
185.9191, 9.750909
186.4012, 9.621084
186.8834, 9.432925
187.3655, 9.267196
187.8476, 9.273140
188.3297, 9.443727
188.8118, 9.698797
189.2939, 10.07722
189.7761, 10.54515
190.2582, 10.81266
190.7403, 10.81635
191.2224, 10.66156
191.7045, 10.52596
192.1866, 10.40792
192.6688, 10.35374
193.1509, 10.38738
193.6330, 10.50720
194.1151, 10.73025
194.5972, 11.08847
195.0793, 11.51717
195.5615, 11.84703
196.0436, 12.06451
196.5257, 12.29105
197.0078, 12.60727
197.4899, 13.01313
197.9720, 13.46448
198.4542, 13.94078
198.9363, 14.46781
199.4184, 15.15235
199.9005, 16.03763
200.3826, 16.88964
200.8647, 17.56510
201.3469, 18.05746
201.8290, 18.46673
202.3111, 18.84602
202.7932, 19.12470
203.2753, 19.08198
203.7574, 18.71864
204.2396, 18.03083
204.7217, 16.94047
205.2038, 15.37800
205.6859, 13.82031
206.1680, 12.29673
206.6501, 10.82836
207.1323, 9.425407
207.6144, 8.065991
208.0965, 6.824413
208.5786, 5.770548
209.0607, 4.913484
209.5428, 4.175130
210.0250, 3.559671
210.5071, 3.057999
210.9892, 2.603920
211.4713, 2.181705
211.9534, 1.838616
212.4355, 1.625532
212.9176, 1.593243
213.3998, 1.509710
213.8819, 1.328620
214.3640, 1.077277
214.8461, 0.9004240
215.3282, 0.8310800
215.8103, 0.7725990
216.2925, 0.6421590
216.7746, 0.3789790
217.2567, 0.2286820
217.7388, 0.2595390
218.2209, 0.4236740
218.7030, 0.4719230
219.1852, 0.3529660
219.6673, 0.2072050
220.1494, 0.1262860
220.6315, 0.1336590
221.1136, 0.1417110
221.5957, 0.1416600
222.0779, 0.1371040
222.5600, 0.1505000
223.0421, 0.2084520
223.5242, 0.2426890
224.0063, 0.1963860
224.4884, 3.9309999E-03
224.9706, 0.1038040
225.4527, 7.6150000E-02
225.9348, 4.8422001E-02
226.4169, 0.1065830
226.8990, 6.9103003E-02
227.3811, 7.6110000E-03
227.8633, 3.9788999E-02
228.3454, 7.2837003E-02
228.8275, 9.2826001E-02
229.3096, 9.6809000E-02
229.7917, 8.7453000E-02
230.2738, 7.5980000E-02
230.7560, 6.6791996E-02
231.2381, 4.9043000E-02
231.7202, 1.0108000E-02
232.2023, 8.2057998E-02
232.6844, 0.1173910
233.1665, 4.8572998E-02
233.6487, 7.6981999E-02
234.1308, 7.9813004E-02
234.6129, 0.1391780
235.0950, 0.3391520
235.5771, 0.3933290
236.0592, 0.2262860
236.5414, 7.4855998E-02
237.0235, 8.2419999E-02
237.5056, 0.2166070
237.9877, 0.2183120
238.4698, 1.9106001E-02
238.9520, 0.2351160
239.4341, 0.3021850
239.9162, 0.1272560
240.3983, 1.6275000E-02
240.8804, 1.9599999E-04
241.3625, 4.0720999E-02
241.8447, 3.1061999E-02
242.3268, 8.5851997E-02
242.8089, 0.1741480
243.2910, 0.1592460
243.7731, 3.9861001E-02
244.2552, 0.1275010
244.7374, 4.5632001E-02
245.2195, 0.1246430
245.7016, 0.2003380
246.1837, 0.1345010
246.6658, 5.1507000E-02
247.1479, 1.8850000E-03
247.6301, 2.1376999E-02
248.1122, 2.6479000E-02
248.5943, 1.2841000E-02
249.0764, 1.2240000E-02
249.5585, 3.8440000E-02
250.0406, 7.8391999E-02
250.5228, 0.1002740
251.0049, 9.1493003E-02
251.4870, 4.6362001E-02
251.9691, 1.0505000E-02
252.4512, 9.4228998E-02
252.9333, 0.1788050
253.4155, 0.2201460
253.8976, 0.1966150
254.3797, 0.1725690
254.8618, 0.1742540
255.3439, 0.2112540
255.8260, 0.2013100
256.3082, 0.1076190
256.7903, 2.4349999E-03
257.2724, 5.9610000E-03
257.7545, 0.1323550
258.2366, 0.2562230
258.7188, 0.3128900
259.2009, 0.2981790
259.6830, 0.2948470
260.1651, 0.3089820
260.6472, 0.3278000
261.1293, 0.3339360
261.6115, 0.3115190
262.0936, 0.3196010
262.5757, 0.3834230
263.0578, 0.5037830
263.5399, 0.5464780
264.0220, 0.4880700
264.5042, 0.3923480
264.9863, 0.3101670
265.4684, 0.2320270
265.9505, 0.2090940
266.4326, 0.2777140
266.9147, 0.4210230
267.3969, 0.4776010
267.8790, 0.4182760
268.3611, 0.3262730
268.8432, 0.2677810
269.3253, 0.2475290
269.8074, 0.2401430
270.2896, 0.2450560
270.7717, 0.2645280
271.2538, 0.2906140
271.7359, 0.3286700
272.2180, 0.3582680
272.7001, 0.3559340
273.1823, 0.3148410
273.6644, 0.2879560
274.1465, 0.2816490
274.6286, 0.2911350
275.1107, 0.3006660
275.5928, 0.3209850
276.0750, 0.3427270
276.5571, 0.3393980
277.0392, 0.3083260
277.5213, 0.3380610
278.0034, 0.4596270
278.4855, 0.6210760
278.9677, 0.6903630
279.4498, 0.6597590
279.9319, 0.6158810
280.4140, 0.6101790
280.8961, 0.6418040
281.3782, 0.6478560
281.8604, 0.6197090
282.3425, 0.5770780
282.8246, 0.5555750
283.3067, 0.5642990
283.7888, 0.5628860
284.2709, 0.5154090
284.7531, 0.4307450
285.2352, 0.3956780
285.7173, 0.4166950
286.1994, 0.4627160
286.6815, 0.4969140
287.1636, 0.5207420
287.6458, 0.5448770
288.1279, 0.5758770
288.6100, 0.6100540
289.0921, 0.6348330
289.5742, 0.6514510
290.0563, 0.6560040
290.5385, 0.6356250
291.0206, 0.5950650
291.5027, 0.5603420
291.9848, 0.5505770
292.4669, 0.5617280
292.9490, 0.5625110
293.4312, 0.5523060
293.9133, 0.5480900
294.3954, 0.5828170
294.8775, 0.6329670
295.3596, 0.6333420
295.8417, 0.5557230
296.3239, 0.4654820
296.8060, 0.4460890
297.2881, 0.4886080
297.7702, 0.5106310
298.2523, 0.4028820
298.7344, 0.2335830
299.2166, 0.1597440
299.6987, 0.2291860
300.1808, 0.3538930
300.6629, 0.4729200
301.1450, 0.5821810
301.6271, 0.6537620
302.1093, 0.6337200
302.5914, 0.5533020
303.0735, 0.4343730
303.5556, 0.2697510
304.0377, 0.1438350
304.5198, 0.1706310
305.0020, 0.2934320
305.4841, 0.3773920
305.9662, 0.3075070
306.4483, 0.1862310
306.9304, 0.1178030
307.4125, 0.1103090
307.8947, 0.1269710
308.3768, 0.1799840
308.8589, 0.2436890
309.3410, 0.2781940
309.8231, 0.2177770
310.3052, 0.1572120
310.7874, 0.1789960
311.2695, 0.2841720
311.7516, 0.3659280
312.2337, 0.3409340
312.7158, 0.2707990
313.1979, 0.2211790
313.6801, 0.2495030
314.1622, 0.2700270
314.6443, 0.2171560
315.1264, 0.1101210
315.6085, 4.6009000E-02
316.0906, 0.1161270
316.5728, 0.2094020
317.0549, 0.2428230
317.5370, 0.1613860
318.0191, 7.1080998E-02
318.5012, 1.7126000E-02
318.9833, 9.0989999E-02
319.4655, 0.1159050
319.9476, 2.4010001E-02
320.4297, 7.6765001E-02
320.9118, 0.1315850
321.3939, 0.1170320
321.8760, 9.3323000E-02
322.3582, 6.6053003E-02
322.8403, 3.7131999E-02
323.3224, 9.9759996E-03
323.8045, 3.5372000E-02
324.2866, 5.8862001E-02
324.7687, 4.0608998E-02
325.2509, 3.3569001E-02
325.7330, 9.1963999E-02
326.2151, 0.1428330
326.6972, 0.1702020
327.1793, 0.1572700
327.6614, 1.4227000E-02
328.1436, 6.7180999E-02
328.6257, 2.2025000E-02
329.1078, 0.1549190
329.5899, 0.2411890
330.0720, 0.1669360
330.5541, 6.0189001E-02
331.0363, 1.6068000E-02
331.5184, 0.1063590
332.0005, 0.1322820
332.4826, 3.5000000E-02
332.9647, 0.1459580
333.4468, 0.2078290
333.9290, 8.0576003E-02
334.4111, 5.7030998E-02
334.8932, 9.6561998E-02
335.3753, 1.9436000E-02
335.8574, 4.6172999E-02
336.3395, 6.4999998E-02
336.8216, 0.2356690
337.3037, 0.2946510
337.7859, 0.2062120
338.2680, 0.1204300
338.7501, 0.1109420
339.2322, 0.1849110
339.7143, 0.1860880
340.1964, 8.4845997E-02
340.6786, 2.4860000E-02
341.1607, 2.1710000E-03
341.6428, 0.1785860
342.1249, 0.3217410
342.6070, 0.3711860
343.0891, 0.3444200
343.5713, 0.3187410
344.0534, 0.2940010
344.5355, 0.2728520
345.0176, 0.2611920
345.4997, 0.2569840
345.9818, 0.2467180
346.4640, 0.2279840
346.9461, 0.2014220
347.4282, 0.1517060
347.9103, 8.3053999E-02
348.3924, 4.8278000E-02
348.8745, 0.1115060
349.3567, 0.2332380
349.8388, 0.3225430
350.3209, 0.3697690
350.8030, 0.3821150
351.2851, 0.3537370
351.7672, 0.2948850
352.2494, 0.2366470
352.7315, 0.1781040
353.2136, 0.1365870
353.6957, 0.1352380
354.1778, 0.1755420
354.6599, 0.2409470
355.1421, 0.3830400
355.6242, 0.5291670
356.1063, 0.5681680
356.5884, 0.3338480
357.0705, 8.2537003E-02
357.5526, 7.4009998E-03
358.0348, 8.4005997E-02
358.5169, 0.1732300
358.9990, 0.2078270
359.4811, 0.2199420
359.9632, 0.2367580
360.4453, 0.2695760
360.9275, 0.2994840
361.4096, 0.3385490
361.8917, 0.3688080
362.3738, 0.3521710
362.8559, 0.2237020
363.3380, 8.6709999E-02
363.8202, 2.0515000E-02
364.3023, 0.1013150
364.7844, 0.1202210
365.2665, 1.2425000E-02
365.7486, 0.1843710
366.2307, 0.2601080
366.7129, 9.5578998E-02
367.1950, 3.4756999E-02
367.6771, 5.5016000E-02
368.1592, 4.1547999E-02
368.6413, 0.1055270
369.1234, 0.1171980
369.6056, 0.1115880
370.0877, 0.1136690
370.5698, 0.1455860
371.0519, 0.1451250
371.5340, 8.1332996E-02
372.0161, 1.7360000E-02
372.4983, 4.2982999E-02
372.9804, 4.5462001E-02
373.4625, 0.1316590
373.9446, 0.1530820
374.4267, 7.7027000E-02
374.9088, 7.9988003E-02
375.3910, 0.2009940
375.8731, 0.3502350
376.3552, 0.3684280
376.8373, 0.2333290
377.3194, 0.1050730
377.8015, 3.8497001E-02
378.2837, 2.8794000E-02
378.7658, 5.5996999E-02
379.2479, 0.1271840
379.7300, 0.1992740
380.2121, 0.2238190
380.6942, 0.2063510
381.1764, 0.2034510
381.6585, 0.2364590
382.1406, 0.2745630
382.6227, 0.2472860
383.1048, 0.1635740
383.5869, 8.0215000E-02
384.0691, 2.6841000E-02
384.5512, 1.4070000E-03
385.0333, 2.2900000E-04
385.5154, 2.0385999E-02
385.9975, 6.4841002E-02
386.4796, 0.1869320
386.9618, 0.3488520
387.4439, 0.4561210
387.9260, 0.4370380
388.4081, 0.3641190
388.8902, 0.2822430
389.3723, 0.1971680
389.8545, 0.1428630
390.3366, 0.1563090
390.8187, 0.1941930
391.3008, 0.2287090
391.7829, 0.2598600
392.2650, 0.2994750
392.7472, 0.3820450
393.2293, 0.4744500
393.7114, 0.4922390
394.1935, 0.3097030
394.6756, 0.1252840
395.1577, 4.7727000E-02
395.6399, 0.1214240
396.1220, 0.1995900
396.6041, 0.2553250
397.0862, 0.3012060
397.5683, 0.3527340
398.0504, 0.4808460
398.5326, 0.5380720
399.0147, 0.4563300
399.4968, 0.2356470
399.9789, 0.1185990
400.4610, 0.1696460
400.9431, 0.2624890
401.4253, 0.3157110
401.9074, 0.2979000
402.3895, 0.3106190
402.8716, 0.3740590
403.3537, 0.4646260
403.8358, 0.5307810
404.3180, 0.5770430
404.8001, 0.5829700
405.2822, 0.5238190
405.7643, 0.3967200
406.2464, 0.3094680
406.7285, 0.2646680
407.2107, 0.2545860
407.6928, 0.2717450
408.1749, 0.3164880
408.6570, 0.3953420
409.1391, 0.5317170
409.6212, 0.6854150
410.1034, 0.7553930
410.5855, 0.7433920
411.0676, 0.6991760
411.5497, 0.6348530
412.0318, 0.5664930
412.5139, 0.5340700
412.9961, 0.5464740
413.4782, 0.5792260
413.9603, 0.5859280
414.4424, 0.5909770
414.9245, 0.6524150
415.4066, 0.9331160
415.8888, 1.194466
416.3709, 1.160028
416.8530, 0.8377400
417.3351, 0.5602250
417.8172, 0.5611150
418.2993, 0.6785540
418.7815, 0.7588580
419.2636, 0.7452540
419.7457, 0.7092820
420.2278, 0.6432450
420.7099, 0.5723080
421.1920, 0.5633840
421.6742, 0.7085790
422.1563, 0.8524900
422.6384, 0.9237360
423.1205, 0.8943410
423.6026, 0.8971330
424.0847, 1.010474
424.5669, 1.128150
425.0490, 1.139990
425.5311, 0.9250880
426.0132, 0.7842120
426.4953, 0.7839290
426.9774, 0.8998890
427.4596, 0.9747850
427.9417, 0.9997020
428.4238, 0.9977180
428.9059, 0.9746760
429.3880, 0.9228960
429.8701, 0.8880380
430.3523, 0.8698700
430.8344, 0.8715180
431.3165, 0.9016380
431.7986, 0.9621520
432.2807, 1.023934
432.7628, 1.087435
433.2450, 1.143081
433.7271, 1.138063
434.2092, 1.069927
434.6913, 1.018497
435.1734, 1.081960
435.6555, 1.216352
436.1377, 1.293372
436.6198, 1.277922
437.1019, 1.231828
437.5840, 1.228259
438.0661, 1.251915
438.5482, 1.260127
439.0304, 1.202934
439.5125, 1.137741
439.9946, 1.121710
440.4767, 1.157855
440.9588, 1.201146
441.4409, 1.228238
441.9231, 1.249896
442.4052, 1.276736
442.8873, 1.321226
443.3694, 1.359690
443.8515, 1.376346
444.3336, 1.380213
444.8158, 1.396892
445.2979, 1.478931
445.7800, 1.532876
446.2621, 1.502830
446.7442, 1.331915
447.2263, 1.264779
447.7085, 1.353142
448.1906, 1.509012
448.6727, 1.659117
449.1548, 1.836300
449.6369, 1.931932
450.1190, 1.908826
450.6012, 1.796357
451.0833, 1.706898
451.5654, 1.628244
452.0475, 1.609893
452.5296, 1.715851
453.0117, 1.949184
453.4939, 2.071257
453.9760, 2.059346
454.4581, 1.995955
454.9402, 1.982026
455.4223, 2.012056
455.9044, 2.049421
456.3866, 2.086946
456.8687, 2.120068
457.3508, 2.139681
457.8329, 2.144428
458.3150, 2.147131
458.7971, 2.187699
459.2793, 2.233575
459.7614, 2.231422
460.2435, 2.161111
460.7256, 2.103223
461.2077, 2.160531
461.6898, 2.256320
462.1720, 2.278703
462.6541, 2.055710
463.1362, 1.871915
463.6183, 1.890718
464.1004, 2.087107
464.5826, 2.235168
465.0647, 2.293471
465.5468, 2.284703
466.0289, 2.217369
466.5110, 2.054223
466.9931, 1.896770
467.4753, 1.689603
467.9574, 1.515036
468.4395, 1.504983
468.9216, 1.796773
469.4037, 2.001139
469.8858, 2.012000
470.3680, 1.849236
470.8501, 1.691156
471.3322, 1.518312
471.8143, 1.399398
472.2964, 1.429178
472.7785, 1.609993
473.2607, 1.621841
473.7428, 1.401048
474.2249, 1.112441
474.7070, 1.013229
475.1891, 1.074900
475.6712, 1.132140
476.1534, 1.110876
476.6355, 1.052267
477.1176, 1.012036
477.5997, 0.9856540
478.0818, 0.9775740
478.5639, 1.005249
479.0461, 1.056916
479.5282, 1.130377
480.0103, 1.247562
480.4924, 1.308438
480.9745, 1.204946
481.4566, 1.018823
481.9388, 0.8706650
482.4209, 0.7789450
482.9030, 0.7523330
483.3851, 0.8545130
483.8672, 1.067338
484.3493, 1.159352
484.8315, 0.9481310
485.3136, 0.7256500
485.7957, 0.6484420
486.2778, 0.8250580
486.7599, 0.9114720
487.2420, 0.8761930
487.7242, 0.7772470
488.2063, 0.6820620
488.6884, 0.5810630
489.1705, 0.4913530
489.6526, 0.4129800
490.1347, 0.3536740
490.6169, 0.3536910
491.0990, 0.4227080
491.5811, 0.4842600
492.0632, 0.4912880
492.5453, 0.4478440
493.0274, 0.3535080
493.5096, 0.1954790
493.9917, 5.1566999E-02
494.4738, 2.5140001E-02
494.9559, 8.2324997E-02
495.4380, 0.1366770
495.9201, 0.1612580
496.4023, 0.1666610
496.8844, 0.1468560
497.3665, 0.1104550
497.8486, 9.6219003E-02
498.3307, 0.1250090
498.8128, 0.1797420
499.2950, 0.2645750
499.7771, 0.3976820
500.2592, 0.4842080
500.7413, 0.4506260
501.2234, 0.3724620
501.7055, 0.3282980
502.1877, 0.4127400
502.6698, 0.4298970
503.1519, 0.3055940
503.6340, 9.5678002E-02
504.1161, 1.9759999E-03
504.5982, 0.1024140
505.0804, 0.1912010
505.5625, 0.1527070
506.0446, 3.6853001E-02
506.5267, 8.7549999E-02
507.0088, 4.0169001E-02
507.4909, 0.2020840
507.9731, 0.2373120
508.4552, 0.1556380
508.9373, 0.1128190
509.4194, 0.1525550
509.9015, 0.2156390
510.3836, 0.1743890
510.8658, 5.5615000E-02
511.3479, 8.2909996E-03
511.8300, 0.1188170
512.3121, 0.2948740
512.7943, 0.3491310
513.2764, 0.2812680
513.7585, 0.1748400
514.2406, 6.7329998E-03
514.7227, 0.1359870
515.2048, 0.1551140
515.6870, 5.5576999E-02
516.1691, 0.2202350
516.6512, 0.2139240
517.1333, 0.1115140
517.6154, 3.5691999E-02
518.0975, 1.7160000E-02
518.5797, 1.5799999E-02
519.0618, 3.5468001E-02
519.5439, 7.2549000E-02
520.0260, 6.8674996E-02
520.5081, 1.3521000E-02
520.9902, 8.1687003E-02
521.4724, 6.9398001E-02
521.9545, 4.9587000E-02
522.4366, 9.7952999E-02
522.9187, 4.9183998E-02
523.4008, 1.9102000E-02
523.8829, 2.6090001E-03
524.3651, 0.1088910
524.8472, 0.2214820
525.3293, 0.3397870
525.8114, 0.4266470
526.2935, 0.3845710
526.7756, 0.2341670
527.2578, 9.2382997E-02
527.7399, 1.2227000E-02
528.2220, 1.3965000E-02
528.7041, 2.8447000E-02
529.1862, 0.1437760
529.6683, 0.2297320
530.1505, 0.2071350
530.6326, 0.1384300
531.1147, 7.3031999E-02
531.5968, 1.3981000E-02
532.0789, 1.7154999E-02
532.5610, 2.0744000E-02
533.0432, 8.7752998E-02
533.5253, 9.7732998E-02
534.0074, 3.9455000E-02
534.4895, 0.1372500
534.9716, 0.1402220
535.4537, 5.1913999E-02
535.9359, 5.7120002E-03
536.4180, 1.7297000E-02
536.9001, 2.7362000E-02
537.3822, 7.9331003E-02
537.8643, 0.1809740
538.3464, 0.2120240
538.8286, 0.1519590
539.3107, 6.4088002E-02
539.7928, 2.2105999E-02
540.2749, 2.3442000E-02
540.7570, 5.4765999E-02
541.2391, 0.1269920
541.7213, 0.2094700
542.2034, 0.2694870
542.6855, 0.3036420
543.1676, 0.3006930
543.6497, 0.2273020
544.1318, 0.1316900
544.6140, 4.2328998E-02
545.0961, 3.9751999E-02
545.5782, 8.2542002E-02
546.0603, 5.6609001E-02
546.5424, 4.7200001E-03
547.0245, 7.4918002E-02
547.5067, 0.1925180
547.9888, 0.2598500
548.4709, 0.2391180
548.9530, 0.1733310
549.4351, 0.1360310
549.9172, 0.1447060
550.3994, 0.1470690
550.8815, 0.1240380
551.3636, 8.2695000E-02
551.8457, 7.9809003E-02
552.3278, 0.1259620
552.8099, 0.1585280
553.2921, 0.1204310
553.7742, 2.7141999E-02
554.2563, 3.4398001E-02
554.7384, 5.9564002E-02
555.2205, 5.4028001E-02
555.7026, 5.1310002E-03
556.1848, 8.7636001E-02
556.6669, 0.1253710
557.1490, 7.1479000E-02
557.6311, 1.1201000E-02
558.1132, 9.4219996E-03
558.5953, 5.2786998E-02
559.0775, 0.1101570
559.5596, 0.2124120
560.0417, 0.2862580
560.5238, 0.2920790
561.0059, 0.2278140
561.4880, 0.1537000
561.9702, 2.1745000E-02
562.4523, 7.0739999E-02
562.9344, 6.7364000E-02
563.4165, 8.6516000E-02
563.8986, 0.1919900
564.3807, 0.2322350
564.8629, 0.2485940
565.3450, 0.2946400
565.8271, 0.3784120
566.3092, 0.4253970
566.7913, 0.4240750
567.2734, 0.3804370
567.7556, 0.2806000
568.2377, 0.1334230
568.7198, 1.6619001E-02
569.2019, 1.4988000E-02
569.6840, 2.2160001E-03
570.1661, 2.0423001E-02
570.6483, 3.8350001E-02
571.1304, 5.8217999E-02
571.6125, 7.8033999E-02
572.0946, 0.1021480
572.5767, 0.1321270
573.0588, 0.1837860
573.5410, 0.2259970
574.0231, 0.2328140
574.5052, 0.2199720
574.9873, 0.2070050
575.4694, 0.1885900
575.9515, 0.1783720
576.4337, 0.1718860
576.9158, 0.1751760
577.3979, 0.2219810
577.8800, 0.3419150
578.3621, 0.4153050
578.8442, 0.3558670
579.3264, 0.1938460
579.8085, 0.1855260
580.2906, 0.3430910
580.7727, 0.4868110
581.2548, 0.4279000
581.7369, 0.2427500
582.2191, 0.1159060
582.7012, 7.5777002E-02
583.1832, 7.8806996E-02
583.6653, 0.1210500
584.1475, 0.1808440
584.6296, 0.2256650
585.1117, 0.2333620
585.5938, 0.2355170
586.0759, 0.2607250
586.5580, 0.2943480
587.0402, 0.2846110
587.5223, 9.6258998E-02
588.0044, 7.3879999E-03
588.4865, 0.1002280
588.9686, 0.4252150
589.4507, 0.5851620
589.9329, 0.5148180
590.4150, 0.3930910
590.8971, 0.3238320
591.3792, 0.3089930
591.8613, 0.3267150
592.3434, 0.3841780
592.8256, 0.4353850
593.3077, 0.4137490
593.7898, 0.3333330
594.2719, 0.2464020
594.7540, 0.1431220
595.2361, 8.2861997E-02
595.7183, 0.1802290
596.2004, 0.3735930
596.6825, 0.5179460
597.1646, 0.5356890
597.6467, 0.4931700
598.1288, 0.3918140
598.6110, 0.2470000
599.0931, 0.1812650
599.5752, 0.3061140
600.0573, 0.4454570
600.5394, 0.5173370
601.0215, 0.5069170
601.5037, 0.4850240
601.9858, 0.4510040
602.4679, 0.4064450
602.9500, 0.3377650
603.4321, 0.2393740
603.9142, 0.1954180
604.3964, 0.2279080
604.8785, 0.2933370
605.3606, 0.3153560
605.8427, 0.3064760
606.3248, 0.3288620
606.8069, 0.4513710
607.2891, 0.5706460
607.7712, 0.5379120
608.2533, 0.3922190
608.7354, 0.2724270
609.2175, 0.2693250
609.6996, 0.2999050
610.1818, 0.3208580
610.6639, 0.3289590
611.1460, 0.3263400
611.6281, 0.2954000
612.1102, 0.2641800
612.5923, 0.2523760
613.0745, 0.2811350
613.5566, 0.2938140
614.0387, 0.2830880
614.5208, 0.2617710
615.0029, 0.2480870
615.4850, 0.2322530
615.9672, 0.2357340
616.4493, 0.2715070
616.9314, 0.3154700
617.4135, 0.3178710
617.8956, 0.2884280
618.3777, 0.2659710
618.8599, 0.2627120
619.3420, 0.2803130
619.8241, 0.3490570
620.3062, 0.4466660
620.7883, 0.4855450
621.2704, 0.3794740
621.7526, 0.2378180
622.2347, 0.1122130
622.7168, 1.7900000E-04
623.1989, 4.8668999E-02
623.6810, 1.1588000E-02
624.1631, 0.1029430
624.6453, 0.1799900
625.1274, 0.2466700
625.6095, 0.2821610
626.0916, 0.2781430
626.5737, 0.2523850
627.0558, 0.2181890
627.5380, 0.1812240
628.0201, 0.2096000
628.5022, 0.3470220
628.9843, 0.5138520
629.4664, 0.5858000
629.9485, 0.5797430
630.4307, 0.5473430
630.9128, 0.4968830
631.3949, 0.4431930
631.8770, 0.4000720
632.3591, 0.3654550
632.8412, 0.3300330
633.3234, 0.2516160
633.8055, 0.1944000
634.2876, 0.1989410
634.7697, 0.2823080
635.2518, 0.3476520
635.7339, 0.4128340
636.2161, 0.4379690
636.6982, 0.3601910
637.1803, 0.1472990
637.6624, 9.4306998E-02
638.1445, 0.2648300
638.6266, 0.4692310
639.1088, 0.3972450
639.5909, 0.1220470
640.0730, 2.9952999E-02
640.5551, 8.0697000E-02
641.0372, 0.2617200
641.5193, 0.3282790
642.0015, 0.3041700
642.4836, 0.2449650
642.9657, 0.1255870
643.4478, 2.4599999E-02
643.9299, 2.3921000E-02
644.4120, 2.1040000E-02
644.8942, 1.6143000E-02
645.3763, 0.1268730
645.8584, 0.2238560
646.3405, 0.2843580
646.8226, 0.3024250
647.3047, 0.3318620
647.7869, 0.3857620
648.2690, 0.4152110
648.7511, 0.3588270
649.2332, 0.2307300
649.7153, 0.1514260
650.1974, 0.1298270
650.6796, 0.1574690
651.1617, 0.2797870
651.6438, 0.4356090
652.1259, 0.5037750
652.6080, 0.4335220
653.0901, 0.3187870
653.5723, 0.1708840
654.0544, 3.1489000E-02
654.5365, 3.4143999E-02
655.0186, 5.6000002E-02
655.5007, 0.1610930
655.9828, 0.2668470
656.4650, 0.3651830
656.9471, 0.4334780
657.4292, 0.4760970
657.9113, 0.4764560
658.3934, 0.4112730
658.8755, 0.2976920
659.3577, 0.2323140
659.8398, 0.2149950
660.3219, 0.2393160
660.8040, 0.3507810
661.2861, 0.4867240
661.7682, 0.5049930
662.2504, 0.3990450
662.7325, 0.2893110
663.2146, 0.2297320
663.6967, 0.2141730
664.1788, 0.2580370
664.6609, 0.4003180
665.1431, 0.4921830
665.6252, 0.4737570
666.1073, 0.3995660
666.5894, 0.3254680
667.0715, 0.2521180
667.5536, 0.1766600
668.0358, 9.1136999E-02
668.5179, 1.2957000E-02
669.0000, 3.1089000E-02
669.4821, 4.1125000E-02
669.9642, 1.3570000E-03
670.4464, 0.1257730
670.9285, 0.2610050
671.4106, 0.2157870
671.8927, 4.6071000E-02
672.3748, 4.8638999E-02
672.8569, 0.1222470
673.3391, 0.3373270
673.8212, 0.4488620
674.3033, 0.4595750
674.7854, 0.4216610
675.2675, 0.2755940
675.7496, 0.1554550
676.2318, 0.1337760
676.7139, 0.2228990
677.1960, 0.2722150
677.6781, 0.2703640
678.1602, 0.2501430
678.6423, 0.2222060
679.1245, 0.1860430
679.6066, 0.2070950
680.0887, 0.2970900
680.5708, 0.3808820
681.0529, 0.3708330
681.5350, 0.3062990
682.0172, 0.2498830
682.4993, 0.2110230
682.9814, 0.1915010
683.4635, 0.1874050
683.9456, 0.2059880
684.4277, 0.2566580
684.9099, 0.4099020
685.3920, 0.5147400
685.8741, 0.5127760
686.3562, 0.4541930
686.8383, 0.4297120
687.3204, 0.4620970
687.8026, 0.4703790
688.2847, 0.4359090
688.7668, 0.3641240
689.2489, 0.2355390
689.7310, 5.5295002E-02
690.2131, 4.7038000E-02
690.6953, 4.4036001E-02
691.1774, 0.2271460
691.6595, 0.3790000
692.1416, 0.4925270
692.6237, 0.5287490
693.1058, 0.3755040
693.5880, 0.2099910
694.0701, 0.1545300
694.5522, 0.2266260
695.0343, 0.3002430
695.5164, 0.4034490
695.9985, 0.4600470
696.4807, 0.4162550
696.9628, 0.2408150
697.4449, 0.1140210
697.9270, 2.7177000E-02
698.4091, 7.6500000E-03
698.8912, 0.1153480
699.3734, 0.3196400
699.8555, 0.4498400
700.3376, 0.4816070
700.8197, 0.4734830
701.3018, 0.4838460
701.7839, 0.4892680
702.2661, 0.4618240
702.7482, 0.3759170
703.2303, 0.2739010
703.7124, 0.1451210
704.1945, 3.2781001E-02
704.6766, 5.5579999E-03
705.1588, 0.1209680
705.6409, 0.2350490
706.1230, 0.3490860
706.6051, 0.4403670
707.0872, 0.4423270
707.5693, 0.3483770
708.0515, 0.2560700
708.5336, 0.2003770
709.0157, 0.1646630
709.4978, 0.1137900
709.9799, 5.2301001E-02
710.4620, 1.0530000E-03
710.9442, 5.6800000E-02
711.4263, 7.7324003E-02
711.9084, 1.3145000E-02
712.3905, 0.1900520
712.8726, 0.2939220
713.3547, 0.2000750
713.8369, 9.4121002E-02
714.3190, 4.3508999E-02
714.8011, 4.8523001E-02
715.2832, 0.1069060
715.7653, 0.2505760
716.2474, 0.3674810
716.7296, 0.3639590
717.2117, 0.2589560
717.6938, 0.2154910
718.1759, 0.2403970
718.6580, 0.2553100
719.1401, 0.1594340
719.6223, 2.7020000E-02
720.1044, 4.7543999E-02
720.5865, 5.1805001E-02
721.0686, 7.2019999E-03
721.5507, 0.2127760
722.0328, 0.4299950
722.5150, 0.5364980
722.9971, 0.4096540
723.4792, 0.3775130
723.9613, 0.5052710
724.4434, 0.6579760
724.9255, 0.6525260
725.4077, 0.4738070
725.8898, 0.3842320
726.3719, 0.4484680
726.8540, 0.5411620
727.3361, 0.4570420
727.8182, 0.2692940
728.3004, 0.1657100
728.7825, 0.2710450
729.2646, 0.3757880
729.7467, 0.3134880
730.2288, 0.1538380
730.7109, 3.4368999E-02
731.1931, 1.3011000E-02
731.6752, 2.3162000E-02
732.1573, 8.7670004E-03
732.6394, 6.9351003E-02
733.1215, 0.1252620
733.6036, 0.1796360
734.0858, 0.2131550
734.5679, 0.2137510
735.0500, 0.1941990
735.5321, 0.1772790
736.0142, 0.1663320
736.4963, 0.1817340
736.9785, 0.2760040
737.4606, 0.3708440
737.9427, 0.3781030
738.4248, 0.3147950
738.9069, 0.2691260
739.3890, 0.3004360
739.8712, 0.3303470
740.3533, 0.3069900
740.8354, 0.2345080
741.3175, 0.2396200
741.7996, 0.3688470
742.2817, 0.4652600
742.7639, 0.4058280
743.2460, 0.2230540
743.7281, 0.2232070
744.2102, 0.4044450
744.6923, 0.5695420
745.1744, 0.5491940
745.6566, 0.4309310
746.1387, 0.2897050
746.6208, 0.1312360
747.1029, 6.0862999E-02
747.5850, 0.1968530
748.0671, 0.3851080
748.5493, 0.5482130
749.0314, 0.6970810
749.5135, 0.7173270
749.9956, 0.5386480
750.4777, 0.3390780
750.9598, 0.2674670
751.4420, 0.3224950
751.9241, 0.3606290
752.4062, 0.3666190
752.8883, 0.3714250
753.3704, 0.4208840
753.8525, 0.4841580
754.3347, 0.5167660
754.8168, 0.5152260
755.2989, 0.4601530
755.7810, 0.2506680
756.2631, 2.7850000E-02
756.7452, 5.9652001E-02
757.2274, 0.1457600
757.7095, 0.2706930
758.1916, 0.3070390
758.6737, 0.2721970
759.1558, 0.1442780
759.6379, 8.7430000E-02
760.1201, 0.1653860
760.6022, 2.0099999E-02
761.0843, 0.1915250
761.5664, 0.2731080
762.0485, 0.2644460
762.5306, 0.2484450
763.0128, 0.2546330
763.4949, 0.2507930
763.9770, 0.1770530
764.4591, 9.4850004E-02
764.9412, 9.7322002E-02
765.4233, 0.3396270
765.9055, 0.4648270
766.3876, 0.4030930
766.8697, 0.2397680
767.3518, 0.1131950
767.8339, 2.1667000E-02
768.3160, 1.8211000E-02
768.7982, 0.1501500
769.2803, 0.3039630
769.7624, 0.2582760
770.2445, 8.9125000E-02
770.7266, 4.5730001E-03
771.2087, 0.1728070
771.6909, 0.3652160
772.1730, 0.5011780
772.6551, 0.5711110
773.1372, 0.5447580
773.6193, 0.3122150
774.1014, 0.1358430
774.5836, 5.3073999E-02
775.0657, 5.8440000E-02
775.5478, 0.1786630
776.0299, 0.4219980
776.5120, 0.5778070
776.9941, 0.5441940
777.4763, 0.4099190
777.9584, 0.2655400
778.4405, 0.1276950
778.9226, 6.1131001E-02
779.4047, 0.1626920
779.8868, 0.2718960
780.3690, 0.3045740
780.8511, 0.2744250
781.3332, 0.2477910
781.8153, 0.2406530
782.2974, 0.2178410
782.7795, 0.1522790
783.2617, 6.8396002E-02
783.7438, 8.7252997E-02
784.2259, 0.2111760
784.7080, 0.2913580
785.1901, 0.2159310
785.6722, 8.5770003E-02
786.1544, 6.0272999E-02
786.6365, 0.1204080
787.1186, 0.1979410
787.6007, 0.2761490
788.0828, 0.3451700
788.5649, 0.4190200
789.0471, 0.4862550
789.5292, 0.4654920
790.0113, 0.2895930
790.4934, 0.1503330
790.9755, 0.1098960
791.4576, 0.1577730
791.9398, 0.2801400
792.4219, 0.4727080
792.9040, 0.6112330
793.3861, 0.5981030
793.8682, 0.5102820
794.3503, 0.4274170
794.8325, 0.3529970
795.3146, 0.2935070
795.7967, 0.2469990
796.2788, 0.2215940
796.7609, 0.2271290
797.2430, 0.2602330
797.7252, 0.3046810
798.2073, 0.3829560
798.6894, 0.4139800
799.1715, 0.3468390
799.6536, 0.2100630
800.1357, 8.7878004E-02
800.6179, 1.2928000E-02
801.1000, 2.5511000E-02
801.5821, 0.1938900
802.0642, 0.4469110
802.5463, 0.5345550
803.0284, 0.4727170
803.5106, 0.3807220
803.9927, 0.2192640
804.4748, 0.1179000
804.9569, 0.1620950
805.4390, 0.3266660
805.9211, 0.3359400
806.4033, 0.1464300
806.8854, 4.1729999E-03
807.3675, 7.3096000E-02
807.8496, 0.2531100
808.3317, 0.2299190
808.8138, 4.6868999E-02
809.2960, 4.8795000E-02
809.7781, 0.2415570
810.2602, 0.5399180
810.7423, 0.5418740
811.2244, 0.2837990
811.7065, 0.1137950
812.1887, 0.1404770
812.6708, 0.1926080
813.1529, 0.2267920
813.6350, 0.2446130
814.1171, 0.2492940
814.5992, 0.2362020
815.0814, 0.2471980
815.5635, 0.3464550
816.0456, 0.4493530
816.5277, 0.3939710
817.0098, 0.2215950
817.4919, 8.8404000E-02
817.9741, 0.1275640
818.4562, 0.1873910
818.9383, 0.1759070
819.4204, 0.1014120
819.9025, 5.3224001E-02
820.3846, 3.3932999E-02
820.8668, 3.4784999E-02
821.3489, 5.5752002E-02
821.8310, 9.3354002E-02
822.3131, 0.1464370
822.7952, 0.2112930
823.2773, 0.2611300
823.7595, 0.2910400
824.2416, 0.2923550
824.7237, 0.2300210
825.2058, 0.1291800
825.6879, 6.8503000E-02
826.1700, 0.1199540
826.6522, 0.1595250
827.1343, 0.1273930
827.6164, 6.1767999E-02
828.0985, 0.1254150
828.5806, 0.3561380
829.0627, 0.4902320
829.5449, 0.4061860
830.0270, 0.2144440
830.5091, 0.1101820
830.9912, 7.5756997E-02
831.4733, 5.9732001E-02
831.9554, 2.9266000E-02
832.4376, 1.9244000E-02
832.9197, 8.7209001E-02
833.4018, 0.1890870
833.8839, 0.1998560
834.3660, 3.4325000E-02
834.8481, 7.7864997E-02
835.3303, 9.4764002E-02
835.8124, 3.8718000E-02
836.2945, 6.5084003E-02
836.7766, 0.2093450
837.2587, 0.3073410
837.7408, 0.3169820
838.2230, 0.2954970
838.7051, 0.3021400
839.1872, 0.3245960
839.6693, 0.3486110
840.1514, 0.4311370
840.6335, 0.4558130
841.1157, 0.3382520
841.5978, 0.1780940
842.0799, 0.1211090
842.5620, 0.1875560
843.0441, 0.2607790
843.5262, 0.3334810
844.0084, 0.3776380
844.4905, 0.3296130
844.9726, 0.2223100
845.4547, 0.1308630
845.9368, 6.9334999E-02
846.4189, 4.2964000E-02
846.9011, 9.1031998E-02
847.3832, 0.1593950
847.8653, 0.1829630
848.3474, 0.1265890
848.8295, 7.3402002E-02
849.3116, 5.8929999E-03
849.7938, 2.7968001E-02
850.2759, 6.3956998E-02
850.7580, 0.2568690
851.2401, 0.3495850
851.7222, 0.3084500
852.2043, 0.2242050
852.6865, 0.1550470
853.1686, 0.1025250
853.6507, 6.4525999E-02
854.1328, 3.1475000E-02
854.6149, 4.6342999E-02
855.0970, 0.1743300
855.5792, 0.3015320
856.0613, 0.3499220
856.5434, 0.3111360
857.0255, 0.2590990
857.5076, 0.1775300
857.9897, 0.1129110
858.4719, 0.1196000
858.9540, 0.1633740
859.4361, 0.1872500
859.9182, 0.1852490
860.4003, 0.1865930
860.8824, 0.2440280
861.3646, 0.2773030
861.8467, 0.2040240
862.3288, 1.7405000E-02
862.8109, 4.4144001E-02
863.2930, 5.3013999E-02
863.7751, 0.1794110
864.2573, 0.2833510
864.7394, 0.3571030
865.2215, 0.3560020
865.7036, 0.2787670
866.1857, 0.2098300
866.6678, 0.2013580
867.1500, 0.2129950
867.6321, 0.2185880
868.1142, 0.2195200
868.5963, 0.2559520
869.0784, 0.3777060
869.5605, 0.4515600
870.0427, 0.4163640
870.5248, 0.3164380
871.0069, 0.3426090
871.4890, 0.4761180
871.9711, 0.5056690
872.4532, 0.2217960
872.9354, 7.5841002E-02
873.4175, 1.5695000E-02
873.8996, 0.2610710
874.3817, 0.4482680
874.8638, 0.3505800
875.3459, 0.2787960
875.8281, 0.3198020
876.3102, 0.3988220
876.7923, 0.3533370
877.2744, 0.1682720
877.7565, 9.0512998E-02
878.2386, 0.1984400
878.7208, 0.3496400
879.2029, 0.3623690
879.6850, 0.2861100
880.1671, 0.2011180
880.6492, 0.1075840
881.1313, 5.5953000E-02
881.6135, 9.8931998E-02
882.0956, 0.1719130
882.5777, 0.2121620
883.0598, 0.2201230
883.5419, 0.1817150
884.0240, 7.7838004E-02
884.5062, 2.8260001E-03
884.9883, 6.7051999E-02
885.4704, 0.2217300
885.9525, 0.3133280
886.4346, 0.3221300
886.9167, 0.2987800
887.3989, 0.2225730
887.8810, 0.1627930
888.3631, 0.1867980
888.8452, 0.3147010
889.3273, 0.3732570
889.8094, 0.3388190
890.2916, 0.2967930
890.7737, 0.3095360
891.2558, 0.3550560
891.7379, 0.3353180
892.2200, 0.2602750
892.7021, 0.2074420
893.1843, 0.2646680
893.6664, 0.3359540
894.1485, 0.3709440
894.6306, 0.3617290
895.1127, 0.2771410
895.5948, 3.5805002E-02
896.0770, 0.1224930
896.5591, 0.1184860
897.0412, 3.6480001E-03
897.5233, 0.1222760
898.0054, 0.2469510
898.4875, 0.2881010
898.9697, 0.1419140
899.4518, 7.3600002E-04
899.9339, 7.7265002E-02
900.4160, 0.2558060
900.8981, 0.3404780
901.3802, 0.1539710
901.8624, 6.3725002E-02
902.3445, 0.1287850
902.8266, 0.2532990
903.3087, 0.3054090
903.7908, 0.2912970
904.2729, 0.2948060
904.7551, 0.3334280
905.2372, 0.3596020
905.7193, 0.2960190
906.2014, 0.2038870
906.6835, 0.1480000
907.1656, 0.1441110
907.6478, 0.1561460
908.1299, 0.1969930
908.6120, 0.2350920
909.0941, 0.2479150
909.5762, 0.2357620
910.0583, 0.2415650
910.5405, 0.2655940
911.0226, 0.2920860
911.5047, 0.3218550
911.9868, 0.3396430
912.4689, 0.3340820
912.9510, 0.3028600
913.4332, 0.2356790
913.9153, 2.2544000E-02
914.3974, 9.7544998E-02
914.8795, 1.7000001E-02
915.3616, 0.2016810
915.8438, 0.3112730
916.3259, 0.3109140
916.8080, 0.2924900
917.2901, 0.2857620
917.7722, 0.2843610
918.2543, 0.2782060
918.7365, 0.2718810
919.2186, 0.2742030
919.7007, 0.2660420
920.1828, 0.3013410
920.6649, 0.4673690
921.1470, 0.6174710
921.6292, 0.4995340
922.1113, 8.3870001E-02
922.5934, 9.7574003E-02
923.0755, 3.9150000E-02
923.5576, 0.2645430
924.0397, 0.3669960
924.5219, 0.3927060
925.0040, 0.3918030
925.4861, 0.3674240
925.9682, 0.3503550
926.4503, 0.3684150
926.9324, 0.3777330
927.4146, 0.3491440
927.8967, 0.2829270
928.3788, 0.2486310
928.8609, 0.2468080
929.3430, 0.2595340
929.8251, 0.3081670
930.3073, 0.3435680
930.7894, 0.2558900
931.2715, 9.1153003E-02
931.7536, 8.7649999E-03
932.2357, 0.1791150
932.7178, 0.2906180
933.2000, 0.2298910
933.6821, 8.1634998E-02
934.1642, 5.1034998E-02
934.6463, 0.1412520
935.1284, 0.1898700
935.6105, 0.1269140
936.0927, 6.9167003E-02
936.5748, 0.2064350
937.0569, 0.4273210
937.5390, 0.5706340
938.0211, 0.5856600
938.5032, 0.5289550
938.9854, 0.3354830
939.4675, 0.1507750
939.9496, 0.1085690
940.4317, 0.2146850
940.9138, 0.2757820
941.3959, 0.2848820
941.8781, 0.2604270
942.3602, 0.1674810
942.8423, 8.1854001E-02
943.3244, 0.1151290
943.8065, 0.2662390
944.2886, 0.3427690
944.7708, 0.2266670
945.2529, 0.1162640
945.7350, 6.6242002E-02
946.2171, 7.1120001E-02
946.6992, 0.1414790
947.1813, 0.2638120
947.6635, 0.3222640
948.1456, 0.2284740
948.6277, 0.1142830
949.1098, 0.1120550
949.5919, 0.1786200
950.0740, 0.2376210
950.5562, 0.2873070
951.0383, 0.2968210
951.5204, 0.2371730
952.0025, 0.1739890
952.4846, 0.2014360
952.9667, 0.3051580
953.4489, 0.3888830
953.9310, 0.4375670
954.4131, 0.4222910
954.8952, 0.2258150
955.3773, 1.8305000E-02
955.8594, 2.7473999E-02
956.3416, 0.1273130
956.8237, 0.2528640
957.3058, 0.3433810
957.7879, 0.3981530
958.2700, 0.4159540
958.7521, 0.3970880
959.2343, 0.3113000
959.7164, 0.1779390
960.1985, 9.7479001E-02
960.6806, 0.2052440
961.1627, 0.2990590
961.6448, 0.2178790
962.1270, 4.3742001E-02
962.6091, 3.5656001E-02
963.0912, 2.4024000E-02
963.5733, 8.1368998E-02
964.0554, 0.1260750
964.5375, 0.1490950
965.0197, 0.1047900
965.5018, 3.3181001E-02
965.9839, 5.5874001E-02
966.4660, 0.2073520
966.9481, 0.3224930
967.4302, 0.2435410
967.9124, 0.1472590
968.3945, 0.1681530
968.8766, 0.3169900
969.3587, 0.4388030
969.8408, 0.5327370
970.3229, 0.6145010
970.8051, 0.7509890
971.2872, 0.8496740
971.7693, 0.6561310
972.2514, 0.2605470
972.7335, 2.1460000E-03
973.2156, 0.1430360
973.6978, 0.2743810
974.1799, 0.2705650
974.6620, 0.1969550
975.1441, 0.1504140
975.6262, 0.1314540
976.1083, 0.1328210
976.5905, 0.1544350
977.0726, 0.1924120
977.5547, 0.2725660
978.0368, 0.3521030
978.5189, 0.3641300
979.0010, 0.2776490
979.4832, 0.2281070
979.9653, 0.2613430
980.4474, 0.2961680
980.9295, 0.3106270
981.4116, 0.2990920
981.8937, 0.2529600
982.3759, 0.1765130
982.8580, 0.1189680
983.3401, 0.1098600
983.8222, 0.1301950
984.3043, 0.1819860
984.7864, 0.2511800
985.2686, 0.3004180
985.7507, 0.3264270
986.2328, 0.3318910
986.7149, 0.3087340
987.1970, 0.2816510
987.6791, 0.2941400
988.1613, 0.3318950
988.6434, 0.3624970
989.1255, 0.3857110
989.6076, 0.3596960
990.0897, 0.1990540
990.5718, 2.8496001E-02
991.0540, 5.6867000E-02
991.5361, 5.3435002E-02
992.0182, 4.9300998E-02
992.5003, 4.6739001E-02
992.9824, 2.9037001E-02
993.4645, 2.9632000E-02
993.9467, 9.6534997E-02
994.4288, 9.6405998E-02
994.9109, 5.6767002E-02
995.3930, 5.2749999E-02
995.8751, 0.1567890
996.3572, 0.2439140
996.8394, 0.2946660
997.3215, 0.3109380
997.8036, 0.2798280
998.2857, 0.2019630
998.7678, 0.1621040
999.2499, 0.1731620
999.7321, 0.2047020
1000.214, 0.2247230
1000.696, 0.2540910
1001.178, 0.3305920
1001.661, 0.4654100
1002.143, 0.5352000
1002.625, 0.5383210
1003.107, 0.4569350
1003.589, 0.2237550
1004.071, 6.0210001E-02
1004.553, 4.4091001E-02
1005.035, 0.2071830
1005.517, 0.4208020
1006.000, 0.4754650
1006.482, 0.4677650
1006.964, 0.4023970
1007.446, 0.3250560
1007.928, 0.3026160
1008.410, 0.3548840
1008.892, 0.3863390
1009.374, 0.3899550
1009.857, 0.3831210
1010.339, 0.3997950
1010.821, 0.4091620
1011.303, 0.3346440
1011.785, 0.1759790
1012.267, 8.8735998E-02
1012.749, 0.2070500
1013.231, 0.3134330
1013.713, 0.3355820
1014.196, 0.2968030
1014.678, 0.2487040
1015.160, 0.1945920
1015.642, 0.1591270
1016.124, 0.1394560
1016.606, 0.1533090
1017.088, 0.2656580
1017.570, 0.3978900
1018.052, 0.4468130
1018.535, 0.3653810
1019.017, 0.2856450
1019.499, 0.2029250
1019.981, 0.1345480
1020.463, 8.8202998E-02
1020.945, 6.9830999E-02
1021.427, 9.8701000E-02
1021.909, 0.1627440
1022.392, 0.1914010
1022.874, 6.8406999E-02
1023.356, 6.1249998E-03
1023.838, 6.5448001E-02
1024.320, 0.2322840
1024.802, 0.4360220
1025.284, 0.6911910
1025.766, 0.7314770
1026.249, 0.4650130
1026.731, 0.1754050
1027.213, 0.1913590
1027.695, 0.3399430
1028.177, 0.4349030
1028.659, 0.4486560
1029.141, 0.3731270
1029.623, 0.1526590
1030.105, 3.7494000E-02
1030.588, 9.5282003E-02
1031.070, 4.3825999E-02
1031.552, 8.9109004E-02
1032.034, 0.2722470
1032.516, 0.3712900
1032.998, 0.2335130
1033.480, 9.7837001E-02
1033.962, 7.2718002E-02
1034.444, 0.1113180
1034.927, 0.1401010
1035.409, 0.1495380
1035.891, 0.2247000
1036.373, 0.3886770
1036.855, 0.5080670
1037.337, 0.4055590
1037.819, 0.2221040
1038.301, 0.1217580
1038.784, 0.1149230
1039.266, 0.1615060
1039.748, 0.3306460
1040.230, 0.4250130
1040.712, 0.3552650
1041.194, 0.2103960
1041.676, 0.2202430
1042.158, 0.3483660
1042.641, 0.4517460
1043.123, 0.4989410
1043.605, 0.4838820
1044.087, 0.3229330
1044.569, 0.1547320
1045.051, 0.1155200
1045.533, 0.2289380
1046.015, 0.2806430
1046.497, 0.2635020
1046.979, 0.2588860
1047.462, 0.3719760
1047.944, 0.4919060
1048.426, 0.4206430
1048.908, 0.2303590
1049.390, 0.1478830
1049.872, 0.3958140
1050.354, 0.5251050
1050.836, 0.4512480
1051.319, 0.2997130
1051.801, 0.2351540
1052.283, 0.2342710
1052.765, 0.2005260
1053.247, 0.1208080
1053.729, 6.9481000E-02
1054.211, 0.1207430
1054.693, 0.1899270
1055.176, 0.2161030
1055.658, 0.2103690
1056.140, 0.2521880
1056.622, 0.3482180
1057.104, 0.4188950
1057.586, 0.4442910
1058.068, 0.4174570
1058.550, 0.2611860
1059.032, 7.5285003E-02
1059.515, 1.0339000E-02
1059.997, 0.1953350
1060.479, 0.2558540
1060.961, 9.8603003E-02
1061.443, 2.5121000E-02
1061.925, 0.1378560
1062.407, 0.4742770
1062.889, 0.5202110
1063.371, 0.3280330
1063.854, 0.1644560
1064.336, 0.2030930
1064.818, 0.2566190
1065.300, 0.2352360
1065.782, 0.1768440
1066.264, 0.1938340
1066.746, 0.2946710
1067.228, 0.2909300
1067.711, 0.1503630
1068.193, 1.1020000E-02
1068.675, 1.6620001E-02
1069.157, 2.5978999E-02
1069.639, 0.1338090
1070.121, 0.2994970
1070.603, 0.3734970
1071.085, 0.3332670
1071.568, 0.2496630
1072.050, 0.1228960
1072.532, 5.5000000E-05
1073.014, 3.1488001E-02
1073.496, 3.5319999E-03
1073.978, 5.9597000E-02
1074.460, 0.1454650
1074.942, 0.1911330
1075.424, 0.1321240
1075.906, 8.0372997E-02
1076.389, 0.1239240
1076.871, 0.2454370
1077.353, 0.2395130
1077.835, 0.1237740
1078.317, 4.8138998E-02
1078.799, 0.1521000
1079.281, 0.2634750
1079.763, 0.2806920
1080.245, 0.2317500
1080.728, 0.1926610
1081.210, 0.1553920
1081.692, 0.1765860
1082.174, 0.2678590
1082.656, 0.3552400
1083.138, 0.3520950
1083.620, 0.3142710
1084.102, 0.3177780
1084.585, 0.3607520
1085.067, 0.3632420
1085.549, 0.3074090
1086.031, 0.2166340
1086.513, 5.7923999E-02
1086.995, 8.1297003E-02
1087.477, 2.7197000E-02
1087.959, 0.2718950
1088.442, 0.3431550
1088.924, 0.1415750
1089.406, 4.2869998E-03
1089.888, 0.1022210
1090.370, 0.2402850
1090.852, 0.2861930
1091.334, 0.2547900
1091.816, 0.2818160
1092.298, 0.3593250
1092.781, 0.3883310
1093.263, 0.2859650
1093.745, 0.1785260
1094.227, 0.1744860
1094.709, 0.2127970
1095.191, 0.2066470
1095.673, 0.1299720
1096.155, 8.8505998E-02
1096.637, 8.4331997E-02
1097.120, 0.1034330
1097.602, 0.1509200
1098.084, 0.2041450
1098.566, 0.2472820
1099.048, 0.2724110
1099.530, 0.2503250
1100.012, 0.1236430
1100.494, 4.0043000E-02
1100.977, 2.8349999E-02
1101.459, 4.4936001E-02
1101.941, 2.4583001E-02
1102.423, 1.1568000E-02
1102.905, 1.2061000E-02
1103.387, 2.9348999E-02
1103.869, 9.3368001E-02
1104.351, 0.2196660
1104.833, 0.3102400
1105.316, 0.3197580
1105.798, 0.2754550
1106.280, 0.2407300
1106.762, 0.2197820
1107.244, 0.2455180
1107.726, 0.3457860
1108.208, 0.4272670
1108.690, 0.3871880
1109.172, 0.3321520
1109.655, 0.3588810
1110.137, 0.4792080
1110.619, 0.4871100
1111.101, 0.3715730
1111.583, 0.3070650
1112.065, 0.4383820
1112.547, 0.5903530
1113.029, 0.5558480
1113.512, 0.4144240
1113.994, 0.2937110
1114.476, 0.1979600
1114.958, 0.1744220
1115.440, 0.2450970
1115.922, 0.3152590
1116.404, 0.2934630
1116.886, 0.2236320
1117.369, 0.1686250
1117.851, 0.1356870
1118.333, 0.1422180
1118.815, 0.2282920
1119.297, 0.3105290
1119.779, 0.3974590
1120.261, 0.4528600
1120.743, 0.4283390
1121.225, 0.3334820
1121.708, 0.1624670
1122.190, 8.1903003E-02
1122.672, 0.2209460
1123.154, 5.0138000E-02
1123.636, 0.1251380
1124.118, 0.1666020
1124.600, 0.1205860
1125.082, 9.2863001E-02
1125.564, 8.8110000E-02
1126.047, 0.1867490
1126.529, 0.4415540
1127.011, 0.6243330
1127.493, 0.4754080
1127.975, 0.2481670
1128.457, 0.1477320
1128.939, 0.1706150
1129.421, 0.1995920
1129.904, 0.2368740
1130.386, 0.2439720
1130.868, 0.1853940
1131.350, 0.1289530
1131.832, 0.1456450
1132.314, 0.2027070
1132.796, 0.2615600
1133.278, 0.3364610
1133.760, 0.3298920
1134.243, 0.2113120
1134.725, 0.1354600
1135.207, 0.2896210
1135.689, 0.4912740
1136.171, 0.3680950
1136.653, 5.9512001E-02
1137.135, 9.4685003E-02
1137.617, 0.1659380
1138.099, 0.3369100
1138.582, 0.3803550
1139.064, 0.3578810
1139.546, 0.2963510
1140.028, 0.2240840
1140.510, 0.2179070
1140.992, 0.2712640
1141.474, 0.3238510
1141.956, 0.4125800
1142.439, 0.4017660
1142.921, 0.1973690
1143.403, 3.5061002E-02
1143.885, 1.5488000E-02
1144.367, 0.2621830
1144.849, 0.3245740
1145.331, 0.1667150
1145.813, 2.7336000E-02
1146.296, 4.4385001E-02
1146.778, 0.1123870
1147.260, 0.2044220
1147.742, 0.2967840
1148.224, 0.3005570
1148.706, 0.2263350
1149.188, 0.1567850
1149.670, 9.7678997E-02
1150.152, 0.1130510
1150.635, 0.3648200
1151.117, 0.6102880
1151.599, 0.6424400
1152.081, 0.4870920
1152.563, 0.3811730
1153.045, 0.3246610
1153.527, 0.3128450
1154.009, 0.3732270
1154.491, 0.4116010
1154.974, 0.2801300
1155.456, 0.1132570
1155.938, 8.7825999E-02
1156.420, 0.2352900
1156.902, 0.3039510
1157.384, 0.2848320
1157.866, 0.2664990
1158.348, 0.3253120
1158.831, 0.3801980
1159.313, 0.3178880
1159.795, 0.1947920
1160.277, 0.1086130
1160.759, 8.8042997E-02
1161.241, 7.6016001E-02
1161.723, 7.4484996E-02
1162.205, 6.6676997E-02
1162.688, 1.4665000E-02
1163.170, 3.4626000E-02
1163.652, 8.0660004E-03
1164.134, 0.1102100
1164.616, 0.1721900
1165.098, 0.1672000
1165.580, 0.1140980
1166.062, 1.4656000E-02
1166.544, 0.1103620
1167.026, 1.4137000E-02
1167.509, 0.1726100
1167.991, 0.2851910
1168.473, 0.3175060
1168.955, 0.3000980
1169.437, 0.1828790
1169.919, 0.1034050
1170.401, 9.1417998E-02
1170.883, 0.1175910
1171.366, 0.1375440
1171.848, 0.1649080
1172.330, 0.2597930
1172.812, 0.4248130
1173.294, 0.5070320
1173.776, 0.3426250
1174.258, 0.2293520
1174.740, 0.2623340
1175.223, 0.3643640
1175.705, 0.3842070
1176.187, 0.3442160
1176.669, 0.3058110
1177.151, 0.2803700
1177.633, 0.2575650
1178.115, 0.2096370
1178.597, 0.1931300
1179.079, 0.2360460
1179.562, 0.3220380
1180.044, 0.4138720
1180.526, 0.4965860
1181.008, 0.5483720
1181.490, 0.5543540
1181.972, 0.5035200
1182.454, 0.2790220
1182.936, 0.1188530
1183.418, 0.2061150
1183.901, 0.4640390
1184.383, 0.4238720
1184.865, 0.1467880
1185.347, 5.4795999E-02
1185.829, 5.1785000E-02
1186.311, 2.5584999E-02
1186.793, 0.1771200
1187.275, 0.3257250
1187.758, 0.4265800
1188.240, 0.4762780
1188.722, 0.4043340
1189.204, 0.2298510
1189.686, 9.1632999E-02
1190.168, 5.5569001E-02
1190.650, 7.6504998E-02
1191.132, 0.1952790
1191.615, 0.3147290
1192.097, 0.3252860
1192.579, 0.2235160
1193.061, 0.2000890
1193.543, 0.2487620
1194.025, 0.2872220
1194.507, 0.2052600
1194.989, 0.1624050
1195.471, 0.3380330
1195.953, 0.5635030
1196.436, 0.6309890
1196.918, 0.5372330
1197.400, 0.3861180
1197.882, 0.1871620
1198.364, 4.5788001E-02
1198.846, 4.8009001E-02
1199.328, 0.1160140
1199.810, 0.2833580
1200.293, 0.4495060
1200.775, 0.4239370
1201.257, 0.1972040
1201.739, 7.7509999E-02
1202.221, 9.0103999E-02
1202.703, 0.1352590
1203.185, 0.1472920
1203.667, 0.1607690
1204.150, 0.2137890
1204.632, 0.2801390
1205.114, 0.3046580
1205.596, 0.2872230
1206.078, 0.2139130
1206.560, 7.7055000E-02
1207.042, 1.4521000E-02
1207.524, 5.9494000E-02
1208.006, 0.1735430
1208.489, 0.2700770
1208.971, 0.3312940
1209.453, 0.2715880
1209.935, 8.8159002E-02
1210.417, 5.6623001E-02
1210.899, 0.2469490
1211.381, 0.4035660
1211.863, 0.2408380
1212.345, 4.0220998E-02
1212.828, 3.0640000E-02
1213.310, 0.1581530
1213.792, 0.2337720
1214.274, 0.2581070
1214.756, 0.2455210
1215.238, 0.1889130
1215.720, 0.1540180
1216.202, 0.2478600
1216.685, 0.3338510
1217.167, 0.2789620
1217.649, 0.1219700
1218.131, 5.9216000E-02
1218.613, 8.7581001E-02
1219.095, 0.1630240
1219.577, 0.2936120
1220.059, 0.3842760
1220.542, 0.3192110
1221.024, 0.2237530
1221.506, 0.2036650
1221.988, 0.2443250
1222.470, 0.2381320
1222.952, 0.1881490
1223.434, 0.1236310
1223.916, 3.1373002E-02
1224.398, 1.0422000E-02
1224.880, 0.1683650
1225.363, 0.3266370
1225.845, 0.2471520
1226.327, 2.7216000E-02
1226.809, 8.8196002E-02
1227.291, 4.1315999E-02
1227.773, 0.1659770
1228.255, 0.2222600
1228.737, 0.2287450
1229.220, 0.1365440
1229.702, 5.0816000E-02
1230.184, 5.4391000E-02
1230.666, 0.1384170
1231.148, 0.2499650
1231.630, 0.3764760
1232.112, 0.4235750
1232.594, 0.2931040
1233.077, 0.1893870
1233.559, 0.2538410
1234.041, 0.3447680
1234.523, 0.3535240
1235.005, 0.2937840
1235.487, 0.2884800
1235.969, 0.3240350
1236.451, 0.3256990
1236.933, 0.2155120
1237.416, 0.1395220
1237.898, 0.1596370
1238.380, 0.2309320
1238.862, 0.3746760
1239.344, 0.5517790
1239.826, 0.4569560
1240.308, 0.1671660
1240.790, 1.6391000E-02
1241.272, 9.7827002E-02
1241.755, 0.2657460
1242.237, 0.5007320
1242.719, 0.6708020
1243.201, 0.6218180
1243.683, 0.4211050
1244.165, 0.3425480
1244.647, 0.3602160
1245.129, 0.3814850
1245.612, 0.4024070
1246.094, 0.3621490
1246.576, 0.2129560
1247.058, 8.2379997E-02
1247.540, 0.1196360
1248.022, 0.2481180
1248.504, 0.2511860
1248.986, 0.1604250
1249.469, 9.2643000E-02
1249.951, 9.9008001E-02
1250.433, 0.1187240
1250.915, 0.1452290
1251.397, 0.1863680
1251.879, 0.2930970
1252.361, 0.3973650
1252.843, 0.3070760
1253.325, 9.5826000E-02
1253.807, 1.0569000E-02
1254.290, 0.2380230
1254.772, 0.3401060
1255.254, 0.2562630
1255.736, 0.1795420
1256.218, 0.3430990
1256.700, 0.5738120
1257.182, 0.6183420
1257.664, 0.5221630
1258.147, 0.4340200
1258.629, 0.3873320
1259.111, 0.2849820
1259.593, 9.7897001E-02
1260.075, 2.0560001E-03
1260.557, 0.2665430
1261.039, 0.5807280
1261.521, 0.5653020
1262.004, 0.3314340
1262.486, 0.2053250
1262.968, 0.2309390
1263.450, 0.2042470
1263.932, 0.1074600
1264.414, 2.9359000E-02
1264.896, 9.6593998E-02
1265.378, 0.1724310
1265.860, 0.1381120
1266.343, 4.2651001E-02
1266.825, 3.6410000E-03
1267.307, 2.6040000E-03
1267.789, 1.0801000E-02
1268.271, 4.7671001E-02
1268.753, 3.7372999E-02
1269.235, 0.1405230
1269.717, 0.3023980
1270.199, 0.2832350
1270.682, 0.2163410
1271.164, 0.3207840
1271.646, 0.5720920
1272.128, 0.6419020
1272.610, 0.5224290
1273.092, 0.3879180
1273.574, 0.3160570
1274.056, 0.2772380
1274.539, 0.2628040
1275.021, 0.2692600
1275.503, 0.3006160
1275.985, 0.3493620
1276.467, 0.3878090
1276.949, 0.4151970
1277.431, 0.4410010
1277.913, 0.5108770
1278.396, 0.5088660
1278.878, 0.3847280
1279.360, 0.2440570
1279.842, 0.1857280
1280.324, 0.2039360
1280.806, 0.3388450
1281.288, 0.5524460
1281.770, 0.6522470
1282.252, 0.4916010
1282.734, 0.4116930
1283.217, 0.4730670
1283.699, 0.5246340
1284.181, 0.3521110
1284.663, 0.1233280
1285.145, 5.4194000E-02
1285.627, 0.1311970
1286.109, 0.2551890
1286.591, 0.4465060
1287.074, 0.5230950
1287.556, 0.4547200
1288.038, 0.3870620
1288.520, 0.4834890
1289.002, 0.6001920
1289.484, 0.5915220
1289.966, 0.5117240
1290.448, 0.5013910
1290.931, 0.5660590
1291.413, 0.6471770
1291.895, 0.7400370
1292.377, 0.7579160
1292.859, 0.5767110
1293.341, 0.3721010
1293.823, 0.2188880
1294.305, 0.1205450
1294.787, 0.1119310
1295.270, 0.1760100
1295.752, 0.1371580
1296.234, 6.7460001E-03
1296.716, 3.6749002E-02
1297.198, 0.2013270
1297.680, 0.4059730
1298.162, 0.4849950
1298.644, 0.5166230
1299.126, 0.5659570
1299.609, 0.5369300
1300.091, 0.4417980
1300.573, 0.1964620
1301.055, 3.3310998E-02
1301.537, 0.0000000E+00
##END=



