##NAMES=Eglestonite
##RRUFFID=R060612
##IDEAL CHEMISTRY=Hg^1+^_6_OCl_3_(OH)
##LOCALITY=Cahill mine, Poverty Peak District, Humboldt County, Nevada, USA
##OWNER=RRUFF
##SOURCE=Michael Scott
##DESCRIPTION=Brown fragments
##STATUS=The identification of this mineral is confirmed by single-crystal X-ray diffraction and chemical analysis.
##URL=rruff.info/R060612
##MEASURED CHEMISTRY=Hg^1+^_6.00_OCl_3.00_(OH) ; O,H not measured but estimated by difference and stoichiometry
88.94696, 0.0000000E+00
89.42908, 4.3779998E-03
89.91119, 0.3404590
90.39331, 0.8277290
90.87543, 1.268618
91.35754, 1.630978
91.83966, 1.811301
92.32178, 1.737827
92.80389, 1.621478
93.28601, 1.432581
93.76813, 1.165301
94.25024, 0.8907210
94.73236, 0.7810240
95.21448, 1.017047
95.69659, 1.327209
96.17871, 1.212397
96.66083, 0.9603320
97.14294, 0.7038700
97.62506, 0.4969940
98.10718, 0.3365850
98.58929, 0.2879660
99.07141, 0.4731730
99.55353, 0.6214570
100.0356, 0.6301540
100.5178, 0.5081440
100.9999, 0.3191280
101.4820, 8.9584000E-02
101.9641, 0.1932910
102.4462, 0.3044790
102.9283, 8.4412999E-02
103.4105, 0.2236000
103.8926, 0.3588950
104.3747, 0.2553780
104.8568, 8.0949999E-02
105.3389, 5.8090002E-03
105.8210, 1.3086000E-02
106.3032, 7.1365997E-02
106.7853, 0.2097290
107.2674, 0.4027850
107.7495, 0.5200890
108.2316, 0.4433100
108.7137, 0.3769670
109.1959, 0.4954010
109.6780, 0.7976150
110.1601, 1.116563
110.6422, 1.260767
111.1243, 1.174864
111.6064, 1.109090
112.0886, 1.068558
112.5707, 1.071929
113.0528, 1.142575
113.5349, 1.286203
114.0170, 1.481511
114.4991, 1.681812
114.9813, 1.925802
115.4634, 2.119444
115.9455, 2.230847
116.4276, 2.297302
116.9097, 2.360156
117.3918, 2.441544
117.8740, 2.537665
118.3561, 2.627966
118.8382, 2.715338
119.3203, 2.795081
119.8024, 2.855868
120.2845, 2.904566
120.7667, 2.967437
121.2488, 3.074331
121.7309, 3.211771
122.2130, 3.296320
122.6951, 3.290064
123.1772, 3.254155
123.6594, 3.233116
124.1415, 3.226573
124.6236, 3.245435
125.1057, 3.344556
125.5878, 3.477153
126.0699, 3.552166
126.5521, 3.505530
127.0342, 3.374184
127.5163, 3.270886
127.9984, 3.228553
128.4805, 3.168182
128.9626, 3.013324
129.4448, 2.804730
129.9269, 2.642364
130.4090, 2.626133
130.8911, 2.773028
131.3732, 2.862197
131.8553, 2.868568
132.3375, 2.834117
132.8196, 2.738293
133.3017, 2.600466
133.7838, 2.481158
134.2659, 2.469169
134.7480, 2.663362
135.2302, 2.700912
135.7123, 2.516498
136.1944, 2.251180
136.6765, 1.963641
137.1586, 1.679174
137.6407, 1.438890
138.1229, 1.314094
138.6050, 1.375118
139.0871, 1.438611
139.5692, 1.523330
140.0513, 1.597668
140.5334, 1.604980
141.0156, 1.511338
141.4977, 1.379609
141.9798, 1.353678
142.4619, 1.454631
142.9440, 1.564591
143.4261, 1.655309
143.9083, 1.721821
144.3904, 1.738827
144.8725, 1.666002
145.3546, 1.560537
145.8367, 1.508348
146.3188, 1.518935
146.8010, 1.560260
147.2831, 1.622816
147.7652, 1.712056
148.2473, 1.782815
148.7294, 1.799039
149.2115, 1.795818
149.6937, 1.788052
150.1758, 1.771701
150.6579, 1.778597
151.1400, 1.886466
151.6221, 2.178397
152.1042, 2.400699
152.5864, 2.422692
153.0685, 2.380542
153.5506, 2.412252
154.0327, 2.590280
154.5148, 2.890802
154.9969, 3.214510
155.4791, 3.557639
155.9612, 3.931730
156.4433, 4.337460
156.9254, 4.774432
157.4075, 5.252110
157.8896, 5.785421
158.3718, 6.366814
158.8539, 6.828005
159.3360, 7.112775
159.8181, 7.351269
160.3002, 7.594775
160.7823, 7.848329
161.2645, 8.045261
161.7466, 8.114122
162.2287, 8.056634
162.7108, 8.192394
163.1929, 8.587934
163.6750, 9.091484
164.1572, 9.669181
164.6393, 10.30665
165.1214, 10.90626
165.6035, 11.40386
166.0856, 11.79505
166.5677, 12.04976
167.0499, 12.05021
167.5320, 11.94867
168.0141, 11.88803
168.4962, 11.86668
168.9783, 11.98438
169.4604, 12.38289
169.9426, 12.98592
170.4247, 13.64904
170.9068, 14.29736
171.3889, 14.96738
171.8710, 15.74759
172.3531, 16.61831
172.8353, 17.65797
173.3174, 18.77385
173.7995, 20.04810
174.2816, 21.66570
174.7637, 23.79513
175.2458, 26.42503
175.7280, 29.27687
176.2101, 32.71324
176.6922, 36.01554
177.1743, 39.42673
177.6564, 42.56833
178.1385, 44.61753
178.6207, 44.79492
179.1028, 42.99314
179.5849, 40.12449
180.0670, 35.10821
180.5491, 29.98359
181.0313, 25.33681
181.5134, 21.28979
181.9955, 17.83883
182.4776, 14.95532
182.9597, 12.67065
183.4418, 10.98929
183.9240, 10.03845
184.4061, 9.440659
184.8882, 9.053364
185.3703, 8.824568
185.8524, 8.707826
186.3345, 8.651500
186.8167, 8.661673
187.2988, 8.755055
187.7809, 8.992469
188.2630, 9.270156
188.7451, 9.544913
189.2272, 9.804140
189.7094, 9.975524
190.1915, 9.928409
190.6736, 9.600959
191.1557, 9.359144
191.6378, 9.269070
192.1199, 9.273512
192.6021, 9.281777
193.0842, 9.260880
193.5663, 9.308375
194.0484, 9.645256
194.5305, 10.24847
195.0126, 10.74934
195.4948, 10.91019
195.9769, 10.90091
196.4590, 11.08984
196.9411, 11.60187
197.4232, 12.22310
197.9053, 12.74857
198.3875, 13.18878
198.8696, 13.58780
199.3517, 13.98835
199.8338, 14.37083
200.3159, 14.67266
200.7980, 14.96157
201.2802, 15.04177
201.7623, 14.81767
202.2444, 14.30271
202.7265, 13.57318
203.2086, 12.63774
203.6907, 11.50553
204.1729, 10.32907
204.6550, 9.043127
205.1371, 7.797675
205.6192, 6.628062
206.1013, 5.552031
206.5834, 4.616653
207.0656, 3.907064
207.5477, 3.458617
208.0298, 2.996892
208.5119, 2.421881
208.9940, 1.913775
209.4761, 1.572897
209.9583, 1.384701
210.4404, 1.251859
210.9225, 1.065564
211.4046, 0.7963060
211.8867, 0.6018940
212.3689, 0.5176250
212.8510, 0.4693100
213.3331, 0.4379210
213.8152, 0.4137080
214.2973, 0.3865930
214.7794, 0.3473060
215.2616, 0.2990370
215.7437, 0.2225170
216.2258, 6.6367000E-02
216.7079, 7.0697002E-02
217.1900, 0.1197810
217.6721, 8.3681002E-02
218.1543, 2.4850000E-02
218.6364, 1.3990000E-02
219.1185, 7.0258997E-02
219.6006, 0.1011860
220.0827, 0.1161550
220.5648, 0.1026670
221.0470, 1.8097000E-02
221.5291, 0.1275240
222.0112, 0.2432940
222.4933, 0.2244200
222.9754, 3.1145001E-02
223.4575, 0.1180690
223.9397, 0.2498820
224.4218, 0.3206900
224.9039, 0.2510980
225.3860, 4.1239001E-02
225.8681, 0.1615690
226.3502, 0.1950240
226.8324, 4.5805000E-02
227.3145, 4.8992001E-02
227.7966, 4.1792002E-02
228.2787, 5.6320000E-03
228.7608, 3.1619001E-02
229.2429, 2.8284000E-02
229.7251, 3.5209000E-02
230.2072, 0.1123630
230.6893, 0.2408950
231.1714, 0.3050330
231.6535, 0.2360620
232.1356, 0.1181100
232.6178, 4.7499999E-02
233.0999, 3.3525001E-02
233.5820, 4.4780001E-02
234.0641, 8.2840003E-02
234.5462, 0.1293040
235.0283, 0.1367310
235.5105, 5.2035999E-02
235.9926, 6.2222000E-02
236.4747, 0.1223040
236.9568, 0.1266550
237.4389, 7.9784997E-02
237.9210, 8.2466997E-02
238.4032, 0.2851880
238.8853, 0.4097680
239.3674, 0.3787140
239.8495, 0.2729240
240.3316, 0.2354490
240.8137, 0.2964540
241.2959, 0.3390900
241.7780, 0.2669110
242.2601, 0.1530440
242.7422, 9.5738001E-02
243.2243, 0.1590260
243.7064, 0.2628360
244.1886, 0.2345910
244.6707, 1.5850000E-03
245.1528, 0.1760540
245.6349, 0.1765910
246.1170, 8.8537998E-02
246.5991, 5.0160000E-03
247.0813, 6.8697996E-02
247.5634, 0.1198740
248.0455, 0.1991760
248.5276, 0.3397400
249.0097, 0.4282790
249.4918, 0.3944430
249.9740, 0.3233590
250.4561, 0.2976990
250.9382, 0.3500420
251.4203, 0.4313000
251.9024, 0.4333880
252.3845, 0.2834360
252.8667, 0.2171960
253.3488, 0.3111890
253.8309, 0.4651180
254.3130, 0.6129470
254.7951, 0.7307250
255.2772, 0.8131630
255.7594, 0.8399160
256.2415, 0.7615220
256.7236, 0.7321700
257.2057, 0.8102770
257.6878, 0.9018500
258.1699, 0.9337370
258.6520, 0.8900620
259.1342, 0.8106190
259.6163, 0.7578930
260.0984, 0.7469180
260.5805, 0.7396940
261.0626, 0.7188870
261.5447, 0.7027500
262.0269, 0.7069740
262.5090, 0.7366740
262.9911, 0.7771260
263.4732, 0.8135250
263.9553, 0.8681570
264.4374, 0.8727970
264.9196, 0.7441160
265.4017, 0.6356460
265.8838, 0.6673580
266.3659, 0.8302300
266.8480, 1.003066
267.3301, 1.038242
267.8123, 0.8850970
268.2944, 0.8178790
268.7765, 0.8876570
269.2586, 0.9799660
269.7407, 1.044881
270.2228, 1.076636
270.7050, 1.089073
271.1871, 1.092913
271.6692, 1.086989
272.1513, 1.085556
272.6334, 1.081269
273.1155, 1.086769
273.5977, 1.120363
274.0798, 1.170691
274.5619, 1.203396
275.0440, 1.200599
275.5261, 1.170002
276.0082, 1.113914
276.4904, 0.9953910
276.9725, 0.8949230
277.4546, 0.8508040
277.9367, 0.8526480
278.4188, 0.8746280
278.9009, 0.9063910
279.3831, 0.9447640
279.8652, 0.9790850
280.3473, 1.043540
280.8294, 1.064000
281.3115, 0.9755170
281.7936, 0.8256690
282.2758, 0.7096760
282.7579, 0.6834330
283.2400, 0.7281980
283.7221, 0.7520350
284.2042, 0.7316120
284.6863, 0.7139590
285.1685, 0.7026350
285.6506, 0.7029620
286.1327, 0.7179670
286.6148, 0.7459310
287.0969, 0.7858730
287.5790, 0.8452510
288.0612, 0.9535590
288.5433, 1.011696
289.0254, 0.9572480
289.5075, 0.8601790
289.9896, 0.8139770
290.4717, 0.8444980
290.9539, 0.9011380
291.4360, 0.9187530
291.9181, 0.8948220
292.4002, 0.8422170
292.8823, 0.7156370
293.3644, 0.5829940
293.8466, 0.5188700
294.3287, 0.5371420
294.8108, 0.5798980
295.2929, 0.5924090
295.7750, 0.5760120
296.2571, 0.5595030
296.7393, 0.5645560
297.2214, 0.5518730
297.7035, 0.4547890
298.1856, 0.2823690
298.6677, 0.1617400
299.1498, 0.2098550
299.6320, 0.4117470
300.1141, 0.5450830
300.5962, 0.5971260
301.0783, 0.6089210
301.5604, 0.6063800
302.0425, 0.5847280
302.5247, 0.5082040
303.0068, 0.3263120
303.4889, 9.9397004E-02
303.9710, 1.0610000E-03
304.4531, 0.1055920
304.9352, 0.2220860
305.4174, 0.2639880
305.8995, 0.2520070
306.3816, 0.2398750
306.8637, 0.2479470
307.3458, 0.2673600
307.8279, 0.2825820
308.3101, 0.2975670
308.7922, 0.3005350
309.2743, 0.2876490
309.7564, 0.2617470
310.2385, 0.2116450
310.7206, 0.1216900
311.2028, 4.3876000E-02
311.6849, 7.0269004E-02
312.1670, 0.2099610
312.6491, 0.3243260
313.1312, 0.3861500
313.6133, 0.4116430
314.0955, 0.4112700
314.5776, 0.3857610
315.0597, 0.3559190
315.5418, 0.3508250
316.0239, 0.3656710
316.5060, 0.3305240
316.9882, 0.1800280
317.4703, 1.9231999E-02
317.9524, 6.8250000E-02
318.4345, 8.0000997E-02
318.9166, 4.3118000E-02
319.3987, 5.1816002E-02
319.8809, 0.1795360
320.3630, 0.2127280
320.8451, 3.5050001E-02
321.3272, 0.1241220
321.8093, 0.1009680
322.2914, 5.6834999E-02
322.7736, 0.1683660
323.2557, 0.1344160
323.7378, 1.3597000E-02
324.2199, 3.5535000E-02
324.7020, 1.3686000E-02
325.1841, 6.6570997E-02
325.6663, 9.0712003E-02
326.1484, 9.5742002E-02
326.6305, 9.8021999E-02
327.1126, 0.1009400
327.5947, 0.1063330
328.0768, 0.1253960
328.5590, 0.1627750
329.0411, 0.1887240
329.5232, 0.1881180
330.0053, 0.1778330
330.4874, 0.1876430
330.9695, 0.2230310
331.4517, 0.2390420
331.9338, 0.1689390
332.4159, 6.7199999E-04
332.8980, 6.4494997E-02
333.3801, 9.2790999E-02
333.8622, 0.2694430
334.3444, 0.2943220
334.8265, 0.1776050
335.3086, 6.1127000E-02
335.7907, 4.4062000E-02
336.2729, 0.1155560
336.7550, 0.1702710
337.2371, 0.2134960
337.7192, 0.2370680
338.2013, 0.2241790
338.6834, 0.1884510
339.1656, 0.1632430
339.6477, 0.1661810
340.1298, 0.1848190
340.6119, 0.1832170
341.0940, 0.1423770
341.5761, 0.1179170
342.0583, 0.1328710
342.5404, 0.1651950
343.0225, 0.1885440
343.5046, 0.1954510
343.9867, 0.1901870
344.4688, 0.1776270
344.9510, 0.1544490
345.4331, 0.1327870
345.9152, 0.1076090
346.3973, 8.7486997E-02
346.8794, 7.7373996E-02
347.3615, 7.8417003E-02
347.8437, 9.4498001E-02
348.3258, 0.1352380
348.8079, 0.2028480
349.2900, 0.2245310
349.7721, 0.1605780
350.2542, 9.9159002E-02
350.7364, 7.5303003E-02
351.2185, 8.2792997E-02
351.7006, 0.1044240
352.1827, 0.1323850
352.6648, 0.1623720
353.1469, 0.1760970
353.6291, 0.1452670
354.1112, 0.1334500
354.5933, 0.1893560
355.0754, 0.2512740
355.5575, 0.2246680
356.0396, 8.2549997E-02
356.5218, 8.7801002E-02
357.0039, 0.1353000
357.4860, 1.7525000E-02
357.9681, 0.1372810
358.4502, 0.2193900
358.9323, 0.2754900
359.4145, 0.3091510
359.8966, 0.3230890
360.3787, 0.3230100
360.8608, 0.3139790
361.3429, 0.2957520
361.8250, 0.2620890
362.3072, 0.2057090
362.7893, 0.1494640
363.2714, 8.2621999E-02
363.7535, 2.3080001E-02
364.2356, 1.0688000E-02
364.7177, 7.3643997E-02
365.1999, 0.1828920
365.6820, 0.2184120
366.1641, 0.1107830
366.6462, 2.1783000E-02
367.1283, 5.0740998E-02
367.6104, 8.8336997E-02
368.0926, 4.9215000E-02
368.5747, 7.0748001E-02
369.0568, 0.1984670
369.5389, 0.2112210
370.0210, 5.2409001E-02
370.5031, 6.0276002E-02
370.9853, 0.1053560
371.4674, 0.1215420
371.9495, 0.1295050
372.4316, 0.1269950
372.9137, 9.4971001E-02
373.3958, 5.0189998E-03
373.8780, 0.1379630
374.3601, 0.2322780
374.8422, 0.2666900
375.3243, 0.2585550
375.8064, 0.1626610
376.2885, 4.4000000E-02
376.7707, 3.1790000E-03
377.2528, 0.1007690
377.7349, 0.2564820
378.2170, 0.2969240
378.6991, 0.1710670
379.1812, 6.6716000E-02
379.6634, 7.2155997E-02
380.1455, 0.1152260
380.6276, 0.1280770
381.1097, 0.1004770
381.5918, 7.4079998E-02
382.0739, 0.1127470
382.5561, 0.2184260
383.0382, 0.2435460
383.5203, 9.8231003E-02
384.0024, 4.1441999E-02
384.4845, 6.1186001E-02
384.9666, 1.3415000E-02
385.4488, 0.1052750
385.9309, 0.1826980
386.4130, 0.2482950
386.8951, 0.3192140
387.3772, 0.4099020
387.8593, 0.4493580
388.3415, 0.3393450
388.8236, 0.1746350
389.3057, 7.5787999E-02
389.7878, 7.4281000E-02
390.2699, 0.1169240
390.7520, 0.1827330
391.2342, 0.2723300
391.7163, 0.3114770
392.1984, 0.2596050
392.6805, 0.1767490
393.1626, 0.1396380
393.6447, 0.1478430
394.1269, 0.1572400
394.6090, 0.1477160
395.0911, 0.1300410
395.5732, 0.1146760
396.0553, 0.1013630
396.5374, 0.1104830
397.0196, 0.1734570
397.5017, 0.2785050
397.9838, 0.3464890
398.4659, 0.3506310
398.9480, 0.3377950
399.4301, 0.3415860
399.9123, 0.3535270
400.3944, 0.3352300
400.8765, 0.2581130
401.3586, 0.1616250
401.8407, 0.1479080
402.3228, 0.2495770
402.8050, 0.3461960
403.2871, 0.4353460
403.7692, 0.4997510
404.2513, 0.5192700
404.7334, 0.4907030
405.2155, 0.4216890
405.6977, 0.3064430
406.1798, 0.1252750
406.6619, 5.9388999E-02
407.1440, 0.1835570
407.6261, 0.3318520
408.1082, 0.4619690
408.5904, 0.5553720
409.0725, 0.5744160
409.5546, 0.4921720
410.0367, 0.3455120
410.5188, 0.2698190
411.0009, 0.3201530
411.4831, 0.3741010
411.9652, 0.4409660
412.4473, 0.4996540
412.9294, 0.5270270
413.4115, 0.5208440
413.8936, 0.5013310
414.3758, 0.4842960
414.8579, 0.4667110
415.3400, 0.4872440
415.8221, 0.6205870
416.3042, 0.7068030
416.7863, 0.6293000
417.2685, 0.4667350
417.7506, 0.3850910
418.2327, 0.5009590
418.7148, 0.7320970
419.1969, 0.8198290
419.6790, 0.6854250
420.1612, 0.5902100
420.6433, 0.6345630
421.1254, 0.7201640
421.6075, 0.7716530
422.0896, 0.7743920
422.5717, 0.7563260
423.0539, 0.7400610
423.5360, 0.7256560
424.0181, 0.7159910
424.5002, 0.7196830
424.9823, 0.7134850
425.4644, 0.6759970
425.9466, 0.6217870
426.4287, 0.5797570
426.9108, 0.5666330
427.3929, 0.5649730
427.8750, 0.5415770
428.3571, 0.4920030
428.8393, 0.4695920
429.3214, 0.5170340
429.8035, 0.5957240
430.2856, 0.6339710
430.7677, 0.6208960
431.2498, 0.6157770
431.7320, 0.6552190
432.2141, 0.7163410
432.6962, 0.7510000
433.1783, 0.7473860
433.6604, 0.7389960
434.1425, 0.7704840
434.6247, 0.8412280
435.1068, 0.8525980
435.5889, 0.7243970
436.0710, 0.6050070
436.5531, 0.6019870
437.0352, 0.6868740
437.5174, 0.7676060
437.9995, 0.7981640
438.4816, 0.7933860
438.9637, 0.7923450
439.4458, 0.7929990
439.9279, 0.8009120
440.4101, 0.8294570
440.8922, 0.8570430
441.3743, 0.8550810
441.8564, 0.8248650
442.3385, 0.8043750
442.8206, 0.8377740
443.3028, 0.9285570
443.7849, 0.9832630
444.2670, 0.9609890
444.7491, 0.9469140
445.2312, 0.9642640
445.7133, 1.001910
446.1955, 1.042683
446.6776, 1.079072
447.1597, 1.114831
447.6418, 1.160371
448.1239, 1.221430
448.6060, 1.268328
449.0882, 1.312774
449.5703, 1.329248
450.0524, 1.272198
450.5345, 1.163179
451.0166, 1.089365
451.4987, 1.131064
451.9809, 1.258472
452.4630, 1.349873
452.9451, 1.388062
453.4272, 1.408082
453.9093, 1.391384
454.3914, 1.376587
454.8736, 1.421907
455.3557, 1.557554
455.8378, 1.684134
456.3199, 1.706924
456.8020, 1.645707
457.2841, 1.561785
457.7663, 1.452977
458.2484, 1.359711
458.7305, 1.341701
459.2126, 1.386497
459.6947, 1.412575
460.1768, 1.389079
460.6590, 1.354628
461.1411, 1.336055
461.6232, 1.333967
462.1053, 1.345818
462.5874, 1.372096
463.0695, 1.408731
463.5517, 1.446568
464.0338, 1.502346
464.5159, 1.533739
464.9980, 1.525729
465.4801, 1.493775
465.9622, 1.432441
466.4444, 1.350704
466.9265, 1.290279
467.4086, 1.296561
467.8907, 1.369815
468.3728, 1.395181
468.8549, 1.357532
469.3371, 1.286832
469.8192, 1.119138
470.3013, 0.9484250
470.7834, 0.9253020
471.2655, 1.096304
471.7477, 1.305587
472.2298, 1.286422
472.7119, 0.9664090
473.1940, 0.7624320
473.6761, 0.7930740
474.1582, 0.8599950
474.6404, 0.8870550
475.1225, 0.8783160
475.6046, 0.8611760
476.0867, 0.8379640
476.5688, 0.8129260
477.0509, 0.7985060
477.5331, 0.7969460
478.0152, 0.8011020
478.4973, 0.8299280
478.9794, 0.8446860
479.4615, 0.7881420
479.9436, 0.6510960
480.4258, 0.5385500
480.9079, 0.5005100
481.3900, 0.5201450
481.8721, 0.5964980
482.3542, 0.7330800
482.8363, 0.8229330
483.3185, 0.7702450
483.8006, 0.6013920
484.2827, 0.4868800
484.7648, 0.4233810
485.2469, 0.4137080
485.7290, 0.5182730
486.2112, 0.6622090
486.6933, 0.7169360
487.1754, 0.6462950
487.6575, 0.5159030
488.1396, 0.3953610
488.6217, 0.2695620
489.1039, 0.2316980
489.5860, 0.3639360
490.0681, 0.4874260
490.5502, 0.5223430
491.0323, 0.4907450
491.5144, 0.4212430
491.9966, 0.3254500
492.4787, 0.2348680
492.9608, 0.2320390
493.4429, 0.3672470
493.9250, 0.4410840
494.4071, 0.3978270
494.8893, 0.3160530
495.3714, 0.2034560
495.8535, 8.8203996E-02
496.3356, 2.0902000E-02
496.8177, 5.1390000E-02
497.2998, 0.1459930
497.7820, 0.2152520
498.2641, 0.2577290
498.7462, 0.2805750
499.2283, 0.2751300
499.7104, 0.2595220
500.1925, 0.2596930
500.6747, 0.2799790
501.1568, 0.2921510
501.6389, 0.2622470
502.1210, 0.2196460
502.6031, 0.2333770
503.0852, 0.3116750
503.5674, 0.3518040
504.0495, 0.2543150
504.5316, 4.9422000E-02
505.0137, 3.4869999E-02
505.4958, 0.1121190
505.9779, 0.2307100
506.4601, 0.2268250
506.9422, 0.1625090
507.4243, 0.1215560
507.9064, 0.1238640
508.3885, 0.1239800
508.8706, 5.7689000E-02
509.3528, 9.4567999E-02
509.8349, 0.1479160
510.3170, 1.1834000E-02
510.7991, 0.1484800
511.2812, 0.1985170
511.7633, 0.1838940
512.2454, 0.1181330
512.7275, 5.3770002E-03
513.2097, 8.6030997E-02
513.6918, 2.1995001E-02
514.1739, 0.2225300
514.6560, 0.3879290
515.1381, 0.4165090
515.6202, 0.3910740
516.1024, 0.3574230
516.5845, 0.3148540
517.0666, 0.2564690
517.5487, 0.1545120
518.0308, 6.2036000E-02
518.5129, 6.3923001E-02
518.9951, 0.1486200
519.4772, 0.2017410
519.9593, 0.1803660
520.4414, 0.1177940
520.9235, 4.4117998E-02
521.4056, 5.0244998E-02
521.8878, 7.1543001E-02
522.3699, 7.7846996E-02
522.8520, 0.2405480
523.3341, 0.2738620
523.8162, 0.2034910
524.2983, 0.1494080
524.7805, 0.1832480
525.2626, 0.2686820
525.7447, 0.3009920
526.2268, 0.2322090
526.7089, 0.1817400
527.1910, 0.1456260
527.6732, 0.1303350
528.1553, 0.1568490
528.6374, 0.2100910
529.1195, 0.2452390
529.6016, 0.2237060
530.0837, 0.1664120
530.5659, 0.1622590
531.0480, 0.2520360
531.5301, 0.2878300
532.0122, 0.1631430
532.4943, 1.0616000E-02
532.9764, 7.5473003E-02
533.4586, 8.6866997E-02
533.9407, 6.2775999E-02
534.4228, 1.6830999E-02
534.9049, 4.4957999E-02
535.3870, 0.1214590
535.8691, 0.2146890
536.3513, 0.2795090
536.8334, 0.2879920
537.3155, 0.2515360
537.7976, 0.1957500
538.2797, 9.2309996E-02
538.7618, 3.6520001E-02
539.2440, 8.6887002E-02
539.7261, 0.1794240
540.2082, 0.2632070
540.6903, 0.3246820
541.1724, 0.3478010
541.6545, 0.3165750
542.1367, 0.2369480
542.6188, 0.1566330
543.1009, 3.5610002E-02
543.5830, 3.0864000E-02
544.0651, 1.5760999E-02
544.5472, 4.4782002E-02
545.0294, 0.1536320
545.5115, 0.2902270
545.9936, 0.3700750
546.4757, 0.2793600
546.9578, 5.4731000E-02
547.4399, 4.4415999E-02
547.9221, 2.8694000E-02
548.4042, 0.1169690
548.8863, 0.1544470
549.3684, 0.1731470
549.8505, 0.2087190
550.3326, 0.2689310
550.8148, 0.3197860
551.2969, 0.3613700
551.7790, 0.3737420
552.2611, 0.2857590
552.7432, 8.7784998E-02
553.2253, 6.3423999E-02
553.7075, 4.4372998E-02
554.1896, 0.1082080
554.6717, 0.2043750
555.1538, 0.2383380
555.6359, 0.2350770
556.1180, 0.1736190
556.6002, 9.2313997E-02
557.0823, 2.7013000E-02
557.5644, 1.5970999E-02
558.0465, 4.8810001E-02
558.5286, 8.8561997E-02
559.0107, 0.1297420
559.4929, 0.1306730
559.9750, 7.1602002E-02
560.4571, 1.4260000E-03
560.9392, 9.0046003E-02
561.4213, 0.1738760
561.9034, 0.2190400
562.3856, 0.2238030
562.8677, 0.2233780
563.3498, 0.2542180
563.8319, 0.3025540
564.3140, 0.3353260
564.7961, 0.3542570
565.2783, 0.3307210
565.7604, 0.2160770
566.2425, 6.8439998E-02
566.7246, 3.4820000E-03
567.2067, 3.8015999E-02
567.6888, 7.8644000E-02
568.1710, 0.1076870
568.6531, 0.1266470
569.1352, 0.1482530
569.6173, 0.1707430
570.0994, 0.1742220
570.5815, 0.1411280
571.0637, 8.1303999E-02
571.5458, 5.6377999E-02
572.0279, 8.7779000E-02
572.5100, 0.1175220
572.9921, 0.1434800
573.4742, 0.1665510
573.9564, 0.1891800
574.4385, 0.2099870
574.9206, 0.2246740
575.4027, 0.2317290
575.8848, 0.2288360
576.3669, 0.1925970
576.8491, 0.1027640
577.3312, 8.8036001E-02
577.8133, 0.2636470
578.2954, 0.4608900
578.7775, 0.5073950
579.2596, 0.4085120
579.7418, 0.2857630
580.2239, 0.1450870
580.7060, 3.0649999E-02
581.1881, 1.3360000E-03
581.6702, 3.8929000E-02
582.1523, 0.1100270
582.6345, 0.2007640
583.1166, 0.2839720
583.5988, 0.3063050
584.0809, 0.2408670
584.5630, 0.1826190
585.0451, 0.1023270
585.5272, 5.7034001E-02
586.0093, 9.8024003E-02
586.4915, 0.1922240
586.9736, 0.2829780
587.4557, 0.3450160
587.9378, 0.3704630
588.4199, 0.3262320
588.9020, 0.1980140
589.3842, 0.1270130
589.8663, 0.1566130
590.3484, 0.2067230
590.8305, 0.2373100
591.3126, 0.2494140
591.7947, 0.2333680
592.2769, 0.1656950
592.7590, 0.1077180
593.2411, 0.1133870
593.7232, 0.1650270
594.2053, 0.2281750
594.6874, 0.2987330
595.1696, 0.3321300
595.6517, 0.2674600
596.1338, 0.1070990
596.6159, 5.5509999E-02
597.0980, 0.2082920
597.5801, 0.3334180
598.0623, 0.3838380
598.5444, 0.3792880
599.0265, 0.3200570
599.5086, 0.2201920
599.9907, 0.1370190
600.4728, 0.1341360
600.9550, 0.1972880
601.4371, 0.2155230
601.9192, 0.1711690
602.4013, 0.1408620
602.8834, 0.1555490
603.3655, 0.1900790
603.8477, 0.2267270
604.3298, 0.2638080
604.8119, 0.2945060
605.2940, 0.3210900
605.7761, 0.3375980
606.2582, 0.3029410
606.7404, 0.2259730
607.2225, 0.1807440
607.7046, 0.2072970
608.1867, 0.2749230
608.6688, 0.3254340
609.1509, 0.3682740
609.6331, 0.3612660
610.1152, 0.2422990
610.5973, 0.1367070
611.0794, 0.1119810
611.5615, 0.1547320
612.0436, 0.2112120
612.5258, 0.2603050
613.0079, 0.2947000
613.4900, 0.3028770
613.9721, 0.2846460
614.4542, 0.2347650
614.9363, 0.1012690
615.4185, 1.5881000E-02
615.9006, 0.1326900
616.3827, 0.3461730
616.8648, 0.4457110
617.3469, 0.3475350
617.8290, 0.2336050
618.3112, 0.2051660
618.7933, 0.2301770
619.2754, 0.2728820
619.7575, 0.3223820
620.2396, 0.3291830
620.7217, 0.2412420
621.2039, 8.1756003E-02
621.6860, 5.9130001E-03
622.1681, 9.8325998E-02
622.6502, 0.1598530
623.1323, 0.1596260
623.6144, 0.1383010
624.0966, 0.1100920
624.5787, 8.5173003E-02
625.0608, 9.4919004E-02
625.5429, 0.1685950
626.0250, 0.2709700
626.5071, 0.3292070
626.9893, 0.3420390
627.4714, 0.3397460
627.9535, 0.3250300
628.4356, 0.3056820
628.9177, 0.2909730
629.3998, 0.2797980
629.8820, 0.2649820
630.3641, 0.2416110
630.8462, 0.2172140
631.3283, 0.1932380
631.8104, 0.1718930
632.2925, 0.1603940
632.7747, 0.1594300
633.2568, 0.1537020
633.7389, 0.1211490
634.2210, 6.1500002E-02
634.7031, 4.3648001E-02
635.1852, 0.1207470
635.6674, 0.1586390
636.1495, 7.3453002E-02
636.6316, 2.8247001E-02
637.1137, 3.5805002E-02
637.5958, 5.9592001E-02
638.0779, 0.1693720
638.5601, 0.2650110
639.0422, 0.3253860
639.5243, 0.2947350
640.0064, 0.1790340
640.4885, 7.3858999E-02
640.9706, 1.4457000E-02
641.4528, 3.7030000E-03
641.9349, 1.3207000E-02
642.4170, 6.9298998E-02
642.8991, 0.1540740
643.3812, 0.3240040
643.8633, 0.4632510
644.3455, 0.5241900
644.8276, 0.5152490
645.3097, 0.4334770
645.7918, 0.2844680
646.2739, 0.1415100
646.7560, 0.1064340
647.2382, 0.1736450
647.7203, 0.2309440
648.2024, 0.2841010
648.6845, 0.3165910
649.1666, 0.3134460
649.6487, 0.2763050
650.1309, 0.1987010
650.6130, 6.3294001E-02
651.0951, 1.7509999E-03
651.5772, 0.1403610
652.0593, 0.3223780
652.5414, 0.3731720
653.0236, 0.3143730
653.5057, 0.2744120
653.9878, 0.3175980
654.4699, 0.3916300
654.9520, 0.3949400
655.4341, 0.2923050
655.9163, 0.2320070
656.3984, 0.2406210
656.8805, 0.2658750
657.3626, 0.3206120
657.8447, 0.3708640
658.3268, 0.3557040
658.8090, 0.2524150
659.2911, 0.1558210
659.7732, 0.1620730
660.2553, 0.2314910
660.7374, 0.2690250
661.2195, 0.2667730
661.7017, 0.2518920
662.1838, 0.2403410
662.6659, 0.2251060
663.1480, 0.1870110
663.6301, 0.1037870
664.1122, 4.4863999E-02
664.5944, 2.3737000E-02
665.0765, 1.5802000E-02
665.5586, 7.2600000E-04
666.0407, 1.3264000E-02
666.5228, 1.9438000E-02
667.0049, 0.1160130
667.4871, 0.2044970
667.9692, 0.1527670
668.4513, 2.5376000E-02
668.9334, 8.4105000E-02
669.4155, 3.3884000E-02
669.8976, 0.1538370
670.3798, 0.1709630
670.8619, 0.1241340
671.3440, 9.9339001E-02
671.8261, 0.1041280
672.3082, 0.1108640
672.7903, 0.1014930
673.2725, 9.7148001E-02
673.7546, 0.1371320
674.2367, 0.2022640
674.7188, 0.2304150
675.2009, 0.1852230
675.6830, 0.1190650
676.1652, 0.1553600
676.6473, 0.3335910
677.1294, 0.3942820
677.6115, 0.2400410
678.0936, 9.7078003E-02
678.5757, 7.2679996E-02
679.0579, 0.1202220
679.5400, 0.1799160
680.0221, 0.2475210
680.5042, 0.3056770
680.9863, 0.3578410
681.4684, 0.3879580
681.9506, 0.3562140
682.4327, 0.2741110
682.9148, 0.2130490
683.3969, 0.2140090
683.8790, 0.2397270
684.3611, 0.2087410
684.8433, 8.1908002E-02
685.3254, 1.8750001E-02
685.8075, 5.9967000E-02
686.2896, 0.1224650
686.7717, 0.1918700
687.2538, 0.2605330
687.7360, 0.3328610
688.2181, 0.4117130
688.7002, 0.4426150
689.1823, 0.3293500
689.6644, 0.1549260
690.1465, 0.1102150
690.6287, 0.1970450
691.1108, 0.2606210
691.5929, 0.2203870
692.0750, 0.1293870
692.5571, 8.8331997E-02
693.0392, 0.1250860
693.5214, 0.1240520
694.0035, 4.4148002E-02
694.4856, 2.1890000E-02
694.9677, 4.0633999E-02
695.4498, 2.4189999E-02
695.9319, 7.1899998E-03
696.4141, 2.3480000E-03
696.8962, 2.6796000E-02
697.3783, 0.1061750
697.8604, 0.2145990
698.3425, 0.2757570
698.8246, 0.2867860
699.3068, 0.2638460
699.7889, 0.2003560
700.2710, 0.1292850
700.7531, 0.1017260
701.2352, 0.1266970
701.7173, 0.1548650
702.1995, 0.2237150
702.6816, 0.2529920
703.1637, 0.1634180
703.6458, 3.5863001E-02
704.1279, 7.6910001E-03
704.6100, 5.1059999E-02
705.0922, 0.1107820
705.5743, 5.9868999E-02
706.0564, 5.9739001E-02
706.5385, 8.9245997E-02
707.0206, 1.9498000E-02
707.5027, 5.9822001E-02
707.9849, 0.1335380
708.4670, 0.1858840
708.9491, 0.1881660
709.4312, 0.1423760
709.9133, 0.1012640
710.3954, 5.6552000E-02
710.8776, 3.0676000E-02
711.3597, 3.8541999E-02
711.8418, 6.7263000E-02
712.3239, 0.1131150
712.8060, 0.1676440
713.2881, 0.2061680
713.7703, 0.2223300
714.2524, 0.2209850
714.7345, 0.2126360
715.2166, 0.1951210
715.6987, 0.1904590
716.1808, 0.2085830
716.6630, 0.2303010
717.1451, 0.2372390
717.6272, 0.2330720
718.1093, 0.2343420
718.5914, 0.2437300
719.0735, 0.2569460
719.5557, 0.2749130
720.0378, 0.2944220
720.5199, 0.3151730
721.0020, 0.3347240
721.4841, 0.3483240
721.9662, 0.3540520
722.4484, 0.3463500
722.9305, 0.3003750
723.4126, 0.2084610
723.8947, 0.1691650
724.3768, 0.2230320
724.8589, 0.2781030
725.3411, 0.2707500
725.8232, 0.2211940
726.3053, 0.1719380
726.7874, 0.1118620
727.2695, 8.7292001E-02
727.7516, 0.1303770
728.2338, 0.1870220
728.7159, 0.2060580
729.1980, 0.1980030
729.6801, 0.2115540
730.1622, 0.2692600
730.6443, 0.3169260
731.1265, 0.2498610
731.6086, 6.7466997E-02
732.0907, 3.3450998E-02
732.5728, 2.9263999E-02
733.0549, 2.8659999E-03
733.5370, 4.5058001E-02
734.0192, 8.4709004E-02
734.5013, 9.7576000E-02
734.9834, 7.8602001E-02
735.4655, 7.5098000E-02
735.9476, 0.1045240
736.4297, 0.1444030
736.9119, 0.2008530
737.3940, 0.2510320
737.8761, 0.2392590
738.3582, 0.1609130
738.8403, 0.1065290
739.3224, 0.1913470
739.8046, 0.3701870
740.2867, 0.4086870
740.7688, 0.2770520
741.2509, 0.1786950
741.7330, 0.1805690
742.2151, 0.2236190
742.6973, 0.2531730
743.1794, 0.2703390
743.6615, 0.2844410
744.1436, 0.2860290
744.6257, 0.2967920
745.1078, 0.3624060
745.5900, 0.4160640
746.0721, 0.3558150
746.5542, 0.2041860
747.0363, 9.2425004E-02
747.5184, 0.1091120
748.0005, 0.1940710
748.4827, 0.2343780
748.9648, 0.2294110
749.4469, 0.2399560
749.9290, 0.2905770
750.4111, 0.3003860
750.8932, 0.1792410
751.3754, 1.2168000E-02
751.8575, 7.3988996E-02
752.3396, 5.9108000E-02
752.8217, 0.1511060
753.3038, 0.1533560
753.7859, 0.1294170
754.2681, 9.5983997E-02
754.7502, 7.1498998E-02
755.2323, 8.6594999E-02
755.7144, 0.1508820
756.1965, 0.2307290
756.6786, 0.3068740
757.1608, 0.3688400
757.6429, 0.3741610
758.1250, 0.3141920
758.6071, 0.2455240
759.0892, 0.1849410
759.5714, 0.1395610
760.0535, 0.1205680
760.5356, 0.1301030
761.0177, 0.1494100
761.4998, 0.1886130
761.9819, 0.2233000
762.4641, 0.2501270
762.9462, 0.2694330
763.4283, 0.2947170
763.9104, 0.3132380
764.3925, 0.2838460
764.8746, 0.1459990
765.3568, 6.8430002E-03
765.8389, 4.3115001E-02
766.3210, 0.2044760
766.8031, 0.3044590
767.2852, 0.3084070
767.7673, 0.2647260
768.2495, 0.2033060
768.7316, 0.1283250
769.2137, 5.0623000E-02
769.6958, 7.7118002E-02
770.1779, 0.1145680
770.6600, 4.3072999E-02
771.1422, 0.1783330
771.6243, 0.1745310
772.1064, 9.1904998E-02
772.5885, 2.2221001E-02
773.0706, 1.4871000E-02
773.5527, 1.0519000E-02
774.0349, 7.3753998E-02
774.5170, 0.1816880
774.9991, 0.2472120
775.4812, 0.2704490
775.9633, 0.2605440
776.4454, 0.2209990
776.9276, 0.1723370
777.4097, 0.1368780
777.8918, 0.1150110
778.3739, 0.1236360
778.8560, 0.1825070
779.3381, 0.2284350
779.8203, 0.2518270
780.3024, 0.2508400
780.7845, 0.2056510
781.2666, 0.1302650
781.7487, 9.1210000E-02
782.2308, 0.1149820
782.7130, 0.1619240
783.1951, 0.2505100
783.6772, 0.3285420
784.1593, 0.3173110
784.6414, 0.2305240
785.1235, 0.1433970
785.6057, 9.6657000E-02
786.0878, 8.8340998E-02
786.5699, 0.1263410
787.0520, 0.2094040
787.5341, 0.2832220
788.0162, 0.3525380
788.4984, 0.3780030
788.9805, 0.3172330
789.4626, 0.2243910
789.9447, 0.1790180
790.4268, 0.1914240
790.9089, 0.2206750
791.3911, 0.2993330
791.8732, 0.3506080
792.3553, 0.3321320
792.8374, 0.2756400
793.3195, 0.2056060
793.8016, 0.1342510
794.2838, 8.4293000E-02
794.7659, 7.2550997E-02
795.2480, 8.8969998E-02
795.7301, 0.1205210
796.2122, 0.1670530
796.6943, 0.2401420
797.1765, 0.3439170
797.6586, 0.4163510
798.1407, 0.4068890
798.6228, 0.3352410
799.1049, 0.2696900
799.5870, 0.2118780
800.0692, 0.1565980
800.5513, 4.9146000E-02
801.0334, 3.9550001E-03
801.5155, 0.1482200
801.9976, 0.3481880
802.4797, 0.3849390
802.9619, 0.2083520
803.4440, 6.0890000E-02
803.9261, 0.1123960
804.4082, 0.2018160
804.8903, 0.1469490
805.3724, 1.6132001E-02
805.8546, 1.5817000E-02
806.3367, 9.1429003E-02
806.8188, 0.2198200
807.3009, 0.2551090
807.7830, 0.2221810
808.2651, 0.2226390
808.7473, 0.2627620
809.2294, 0.2947410
809.7115, 0.3156520
810.1936, 0.3140090
810.6757, 0.2497620
811.1578, 0.1460120
811.6400, 9.5550999E-02
812.1221, 0.1232780
812.6042, 0.1518530
813.0863, 0.2013330
813.5684, 0.2186300
814.0505, 0.1298950
814.5327, 9.4499998E-04
815.0148, 6.1673000E-02
815.4969, 2.0873999E-02
815.9790, 5.6876000E-02
816.4611, 0.1436330
816.9432, 0.2172630
817.4254, 0.2303140
817.9075, 0.1901190
818.3896, 0.1284500
818.8717, 5.2354999E-02
819.3538, 5.1099999E-04
819.8359, 1.9307001E-02
820.3181, 9.2918001E-02
820.8002, 0.1055080
821.2823, 9.5710000E-03
821.7644, 3.8089000E-02
822.2465, 7.5770002E-03
822.7286, 7.7128999E-02
823.2108, 0.1555920
823.6929, 0.2248690
824.1750, 0.2426540
824.6571, 0.1872950
825.1392, 0.1401870
825.6213, 0.1228090
826.1035, 0.1345490
826.5856, 0.2146270
827.0677, 0.3125140
827.5498, 0.3158800
828.0319, 0.2030980
828.5140, 7.9162002E-02
828.9962, 1.7096000E-02
829.4783, 1.1151000E-02
829.9604, 6.5797001E-02
830.4425, 0.1803760
830.9246, 0.2541270
831.4067, 0.2520120
831.8889, 0.2065090
832.3710, 0.1471640
832.8531, 8.5256003E-02
833.3352, 7.3720001E-02
833.8173, 0.1679290
834.2994, 0.2179660
834.7816, 0.1751470
835.2637, 0.1438470
835.7458, 0.1762160
836.2279, 0.2469970
836.7100, 0.3339360
837.1921, 0.4339800
837.6743, 0.4761900
838.1564, 0.3787930
838.6385, 0.2490600
839.1206, 0.1824840
839.6027, 0.1587720
840.0848, 0.1250720
840.5670, 7.4927002E-02
841.0491, 5.6742001E-02
841.5312, 0.1189680
842.0133, 0.2185620
842.4954, 0.2314800
842.9775, 0.1553730
843.4597, 0.1214210
843.9418, 0.1553160
844.4239, 0.2020380
844.9060, 0.2442590
845.3881, 0.2636790
845.8702, 0.2089410
846.3524, 2.6490999E-02
846.8345, 6.4608999E-02
847.3166, 2.3637000E-02
847.7987, 5.5852000E-02
848.2808, 0.1880860
848.7629, 0.3216590
849.2451, 0.3973150
849.7272, 0.3953380
850.2093, 0.3562410
850.6914, 0.2723710
851.1735, 0.1851540
851.6556, 0.1162200
852.1378, 7.2687000E-02
852.6199, 7.4519001E-02
853.1020, 0.1158940
853.5841, 0.1653340
854.0662, 0.2061380
854.5483, 0.2387630
855.0305, 0.2588740
855.5126, 0.2675900
855.9947, 0.3090160
856.4768, 0.4008260
856.9589, 0.4224920
857.4410, 0.2952020
857.9232, 0.1420190
858.4053, 0.1202180
858.8874, 0.2318990
859.3695, 0.2861280
859.8516, 0.2146550
860.3337, 0.1837850
860.8159, 0.2607650
861.2980, 0.3398350
861.7801, 0.3514650
862.2622, 0.3087640
862.7443, 0.2427480
863.2264, 0.1529930
863.7086, 9.2312999E-02
864.1907, 0.1247330
864.6728, 0.1796360
865.1549, 0.1700990
865.6370, 0.1222260
866.1191, 0.1149690
866.6013, 0.1669270
867.0834, 0.2187330
867.5655, 0.2073630
868.0476, 0.1642030
868.5297, 0.1934600
869.0118, 0.2942690
869.4940, 0.3525240
869.9761, 0.3409740
870.4582, 0.3293050
870.9403, 0.3719230
871.4224, 0.4378520
871.9045, 0.4480250
872.3867, 0.3913950
872.8688, 0.3085010
873.3509, 0.1225820
873.8330, 1.5610000E-02
874.3151, 0.1013370
874.7972, 0.2456880
875.2794, 0.3182780
875.7615, 0.3146670
876.2436, 0.2963270
876.7257, 0.2689990
877.2078, 0.2499620
877.6899, 0.2564150
878.1721, 0.2703190
878.6542, 0.2743020
879.1363, 0.2665590
879.6184, 0.2452680
880.1005, 0.2142070
880.5826, 0.1846850
881.0648, 0.1705000
881.5469, 0.1703590
882.0290, 0.1910830
882.5111, 0.2282000
882.9932, 0.2285330
883.4753, 0.1718380
883.9575, 0.1230660
884.4396, 0.1533260
884.9217, 0.2400300
885.4038, 0.2597410
885.8859, 0.1871930
886.3680, 0.1283840
886.8502, 0.1117870
887.3323, 8.5566998E-02
887.8144, 1.9525001E-02
888.2965, 0.1341150
888.7786, 0.1267890
889.2607, 3.1369999E-02
889.7429, 0.1433580
890.2250, 0.1659020
890.7071, 0.1563180
891.1892, 0.1002590
891.6713, 5.0399002E-02
892.1534, 6.8575002E-02
892.6356, 0.1466070
893.1177, 0.2309300
893.5998, 0.3047880
894.0819, 0.3518990
894.5640, 0.3410290
895.0461, 0.3028730
895.5283, 0.2881780
896.0104, 0.2932610
896.4925, 0.2856920
896.9746, 0.2536800
897.4567, 0.2193780
897.9388, 0.2093470
898.4210, 0.2177050
898.9031, 0.2066050
899.3852, 0.1745370
899.8673, 0.1892460
900.3494, 0.2804730
900.8315, 0.3503150
901.3137, 0.3133460
901.7958, 0.2180120
902.2779, 0.2079860
902.7600, 0.3407930
903.2421, 0.3953410
903.7242, 0.3068960
904.2064, 0.2242500
904.6885, 0.2194160
905.1706, 0.2215660
905.6527, 0.1101120
906.1348, 9.3391001E-02
906.6169, 0.1698880
907.0991, 4.1080002E-02
907.5812, 0.2359930
908.0633, 0.3012520
908.5454, 0.3073830
909.0275, 0.3011390
909.5096, 0.2914500
909.9918, 0.2803130
910.4739, 0.2641240
910.9560, 0.2529710
911.4381, 0.2714920
911.9202, 0.2964110
912.4023, 0.2925750
912.8845, 0.2658790
913.3666, 0.2227450
913.8487, 0.1700550
914.3308, 0.1490760
914.8129, 0.1919070
915.2950, 0.2716580
915.7772, 0.3456080
916.2593, 0.4127680
916.7414, 0.3863390
917.2235, 0.2367770
917.7056, 0.1616400
918.1877, 0.2727030
918.6699, 0.4178430
919.1520, 0.3927790
919.6341, 0.2039430
920.1162, 0.1125130
920.5983, 0.1820940
921.0804, 0.2363800
921.5626, 0.2551230
922.0447, 0.2557250
922.5268, 0.2252300
923.0089, 0.1911020
923.4910, 0.2095500
923.9731, 0.3025280
924.4553, 0.3487600
924.9374, 0.2743650
925.4195, 0.1975460
925.9016, 0.1697430
926.3837, 0.1749290
926.8658, 0.1999510
927.3480, 0.2394230
927.8301, 0.2890190
928.3122, 0.3512040
928.7943, 0.3829470
929.2764, 0.3236350
929.7585, 0.2224530
930.2407, 0.1343910
930.7228, 6.9521002E-02
931.2049, 3.4641001E-02
931.6870, 3.3668999E-02
932.1691, 8.9740999E-02
932.6512, 0.2540410
933.1334, 0.4434930
933.6155, 0.4095130
934.0976, 0.1859060
934.5797, 8.5359000E-02
935.0618, 0.1548110
935.5439, 0.2389600
936.0261, 0.2544820
936.5082, 0.2332990
936.9903, 0.2257490
937.4724, 0.2302000
937.9545, 0.2585030
938.4366, 0.3388060
938.9188, 0.3593550
939.4009, 0.2440720
939.8830, 0.1373140
940.3651, 0.1758110
940.8472, 0.3095960
941.3293, 0.3648760
941.8115, 0.3211750
942.2936, 0.2535160
942.7757, 9.1996998E-02
943.2578, 5.6420001E-03
943.7399, 6.8903998E-02
944.2220, 0.2015550
944.7042, 0.2759160
945.1863, 0.2890700
945.6684, 0.2970000
946.1505, 0.3275850
946.6326, 0.3328670
947.1147, 0.2392780
947.5969, 0.1539150
948.0790, 0.2172680
948.5611, 0.3580400
949.0432, 0.4182250
949.5253, 0.3597660
950.0074, 0.2844570
950.4896, 0.2655000
950.9717, 0.2721840
951.4538, 0.2868550
951.9359, 0.2913790
952.4180, 0.2210910
952.9001, 9.0915002E-02
953.3823, 1.8634999E-02
953.8644, 6.4850003E-02
954.3465, 0.1433400
954.8286, 0.1223490
955.3107, 3.0885000E-02
955.7928, 1.4620000E-03
956.2750, 2.3727000E-02
956.7571, 9.3970001E-02
957.2392, 0.2131700
957.7213, 0.2905300
958.2034, 0.2454250
958.6855, 0.1385740
959.1677, 0.1401620
959.6498, 0.2801030
960.1319, 0.3561720
960.6140, 0.3433120
961.0961, 0.3427280
961.5782, 0.4180960
962.0604, 0.4776430
962.5425, 0.4032930
963.0246, 0.2172020
963.5067, 8.6289003E-02
963.9888, 9.2820004E-03
964.4709, 2.4449000E-02
964.9531, 5.5706002E-02
965.4352, 0.1191760
965.9173, 0.1052200
966.3994, 5.4682001E-02
966.8815, 1.2190000E-03
967.3636, 4.8990998E-02
967.8458, 4.0660001E-02
968.3279, 0.1044570
968.8100, 0.2193460
969.2921, 0.2466320
969.7742, 0.2287000
970.2563, 0.1708820
970.7385, 0.1026890
971.2206, 7.7459000E-02
971.7027, 0.1071720
972.1848, 0.1338390
972.6669, 0.1200920
973.1490, 9.5766999E-02
973.6312, 5.4811999E-02
974.1133, 3.5941001E-02
974.5954, 0.1368380
975.0775, 0.3128390
975.5596, 0.3878500
976.0417, 0.2801950
976.5239, 0.1431600
977.0060, 0.1342910
977.4881, 0.1949530
977.9702, 0.2518740
978.4523, 0.2888430
978.9344, 0.2424880
979.4166, 0.1143480
979.8987, 6.0120001E-03
980.3808, 1.7000001E-02
980.8629, 1.5906001E-02
981.3450, 7.1466997E-02
981.8271, 0.1413520
982.3093, 0.1807530
982.7914, 0.1885960
983.2735, 0.1656620
983.7556, 0.1086260
984.2377, 4.1988999E-02
984.7198, 1.7355001E-02
985.2020, 4.9440000E-02
985.6841, 3.1559002E-02
986.1662, 0.2499880
986.6483, 0.3588270
987.1304, 0.3243740
987.6125, 0.2736640
988.0947, 0.2509310
988.5768, 0.2381790
989.0589, 0.2172340
989.5410, 0.1883110
990.0231, 0.1495040
990.5052, 7.5865000E-02
990.9874, 5.2921001E-02
991.4695, 0.1172260
991.9516, 0.1839840
992.4337, 0.2374200
992.9158, 0.2585010
993.3979, 0.1999780
993.8801, 6.2368002E-02
994.3622, 1.1576000E-02
994.8443, 4.7100001E-04
995.3264, 4.4613000E-02
995.8085, 0.1822910
996.2906, 0.2840150
996.7728, 0.2352260
997.2549, 0.1278950
997.7370, 0.1111360
998.2191, 0.2006740
998.7012, 0.2654300
999.1833, 0.2434740
999.6655, 0.2320960
1000.148, 0.3185600
1000.630, 0.3808710
1001.112, 0.2695980
1001.594, 8.2503997E-02
1002.076, 3.4591999E-02
1002.558, 0.1760370
1003.040, 0.2732390
1003.522, 0.1352150
1004.005, 9.5009999E-03
1004.487, 1.3133000E-02
1004.969, 0.1085400
1005.451, 0.1818070
1005.933, 0.2204430
1006.415, 0.2451760
1006.897, 0.2631090
1007.379, 0.2645860
1007.861, 0.2269640
1008.344, 0.1827360
1008.826, 0.1783070
1009.308, 0.1883230
1009.790, 0.1626530
1010.272, 0.1039050
1010.754, 4.6902001E-02
1011.236, 9.8409997E-03
1011.718, 1.8200000E-04
1012.201, 4.5876998E-02
1012.683, 0.1150700
1013.165, 0.1366060
1013.647, 0.1266610
1014.129, 0.1487030
1014.611, 0.2046490
1015.093, 0.2236860
1015.575, 0.1611650
1016.057, 9.3236998E-02
1016.540, 0.1660100
1017.022, 0.3190970
1017.504, 0.3233180
1017.986, 0.1983860
1018.468, 7.5396001E-02
1018.950, 1.3825000E-02
1019.432, 4.9842998E-02
1019.914, 1.5551000E-02
1020.396, 5.9381999E-02
1020.879, 0.1327120
1021.361, 0.2011220
1021.843, 0.2166810
1022.325, 0.1771860
1022.807, 0.1338610
1023.289, 9.5826000E-02
1023.771, 6.3703999E-02
1024.253, 3.5069000E-02
1024.735, 2.0380000E-02
1025.218, 5.2150000E-02
1025.700, 0.1400470
1026.182, 0.1692530
1026.664, 0.1227100
1027.146, 9.7962998E-02
1027.628, 0.1243630
1028.110, 0.1697190
1028.592, 0.2165450
1029.075, 0.2526500
1029.557, 0.2357650
1030.039, 0.1449990
1030.521, 0.1232110
1031.003, 0.1959500
1031.485, 0.2674310
1031.967, 0.3255520
1032.449, 0.3435330
1032.932, 0.2793230
1033.414, 0.1688560
1033.896, 0.1302500
1034.378, 0.1861610
1034.860, 0.2377560
1035.342, 0.3125830
1035.824, 0.3250550
1036.306, 0.1907460
1036.788, 6.3556999E-02
1037.271, 9.4453000E-02
1037.753, 0.2306330
1038.235, 0.2954370
1038.717, 0.2757940
1039.199, 0.2270370
1039.681, 0.1108170
1040.163, 2.0284999E-02
1040.645, 2.2638001E-02
1041.127, 3.0180000E-02
1041.610, 7.0059998E-03
1042.092, 7.0845000E-02
1042.574, 0.1012430
1043.056, 8.6831003E-02
1043.538, 7.2095998E-02
1044.020, 2.2386000E-02
1044.502, 1.2421000E-02
1044.984, 0.1172880
1045.467, 0.2226130
1045.949, 0.2211300
1046.431, 0.1444160
1046.913, 9.2501998E-02
1047.395, 7.6266997E-02
1047.877, 7.6419003E-02
1048.359, 8.9211002E-02
1048.841, 0.1197720
1049.323, 0.1933900
1049.806, 0.2649420
1050.288, 0.3051310
1050.770, 0.3108270
1051.252, 0.2713380
1051.734, 0.1665880
1052.216, 9.5923997E-02
1052.698, 0.1152750
1053.180, 0.1300150
1053.662, 9.1137998E-02
1054.145, 4.3056000E-02
1054.627, 1.8766001E-02
1055.109, 1.9036001E-02
1055.591, 4.7905002E-02
1056.073, 0.1179350
1056.555, 0.1432750
1057.037, 4.0341001E-02
1057.519, 3.6738001E-02
1058.002, 9.7669996E-03
1058.484, 8.2410000E-02
1058.966, 9.9578999E-02
1059.448, 7.0077002E-02
1059.930, 2.1091999E-02
1060.412, 4.7363002E-02
1060.894, 7.3959999E-02
1061.376, 1.5260000E-02
1061.859, 8.2919002E-02
1062.341, 3.1755000E-02
1062.823, 3.3732999E-02
1063.305, 4.5619998E-03
1063.787, 8.1416003E-02
1064.269, 0.1283890
1064.751, 0.1151770
1065.233, 9.7759001E-02
1065.715, 7.9847001E-02
1066.198, 8.8399000E-02
1066.680, 0.1884190
1067.162, 0.2698890
1067.644, 0.1980220
1068.126, 4.5538001E-02
1068.608, 4.2022001E-02
1069.090, 3.5128001E-02
1069.572, 1.0495000E-02
1070.054, 0.1099540
1070.537, 0.1948400
1071.019, 0.2270010
1071.501, 0.2360820
1071.983, 0.2576310
1072.465, 0.2722720
1072.947, 0.2135570
1073.429, 8.3371997E-02
1073.911, 1.5660000E-03
1074.394, 3.7907001E-02
1074.876, 0.1041170
1075.358, 0.2027430
1075.840, 0.2710240
1076.322, 0.2234360
1076.804, 0.1277360
1077.286, 9.9766001E-02
1077.768, 0.1525810
1078.250, 0.1954680
1078.733, 0.1795660
1079.215, 0.1722580
1079.697, 0.2275330
1080.179, 0.2810840
1080.661, 0.2824830
1081.143, 0.2527620
1081.625, 0.2186690
1082.107, 0.1864740
1082.590, 0.1581330
1083.072, 0.1310450
1083.554, 0.1172880
1084.036, 0.1348360
1084.518, 0.1540210
1085.000, 0.1498910
1085.482, 0.1394050
1085.964, 0.1519410
1086.447, 0.1793530
1086.929, 0.1795940
1087.411, 0.1312330
1087.893, 9.3213998E-02
1088.375, 0.1085170
1088.857, 0.1193280
1089.339, 7.4456997E-02
1089.821, 2.1846000E-02
1090.303, 1.8261001E-02
1090.786, 5.0595999E-02
1091.268, 6.9991998E-02
1091.750, 6.3038997E-02
1092.232, 5.6488000E-02
1092.714, 3.6575999E-02
1093.196, 4.9265999E-02
1093.678, 0.1681160
1094.160, 0.2875050
1094.642, 0.2927050
1095.125, 0.2192390
1095.607, 0.1619510
1096.089, 0.1410920
1096.571, 0.1510370
1097.053, 0.2208570
1097.535, 0.2790540
1098.017, 0.3041840
1098.499, 0.3036560
1098.982, 0.2680830
1099.464, 0.2232900
1099.946, 0.2061390
1100.428, 0.2188970
1100.910, 0.2242000
1101.392, 0.1902100
1101.874, 0.1816820
1102.356, 0.2493610
1102.839, 0.3064830
1103.321, 0.2993520
1103.803, 0.2580900
1104.285, 0.2037350
1104.767, 0.1481640
1105.249, 0.1446400
1105.731, 0.2421460
1106.213, 0.3060650
1106.695, 0.3085390
1107.177, 0.2827020
1107.660, 0.2117660
1108.142, 0.1431350
1108.624, 0.1310730
1109.106, 0.1585040
1109.588, 0.1588120
1110.070, 0.1077730
1110.552, 9.2917003E-02
1111.034, 0.1536950
1111.517, 0.2050580
1111.999, 0.2142450
1112.481, 0.2193170
1112.963, 0.2600410
1113.445, 0.3115490
1113.927, 0.3212320
1114.409, 0.2852390
1114.891, 0.2322240
1115.374, 0.1054090
1115.856, 5.9455000E-02
1116.338, 0.1790060
1116.820, 0.2855430
1117.302, 0.2796370
1117.784, 0.2138550
1118.266, 0.1500660
1118.748, 9.0111002E-02
1119.230, 5.9227999E-02
1119.713, 6.5141000E-02
1120.195, 6.4865999E-02
1120.677, 4.5722000E-02
1121.159, 4.2872999E-02
1121.641, 8.3219998E-02
1122.123, 0.1135470
1122.605, 6.6237003E-02
1123.087, 2.9042000E-02
1123.569, 4.4128999E-02
1124.052, 4.6032999E-02
1124.534, 0.1104370
1125.016, 0.1474330
1125.498, 0.1637910
1125.980, 0.1544360
1126.462, 0.1312500
1126.944, 0.1023600
1127.426, 7.9995997E-02
1127.909, 9.2738003E-02
1128.391, 0.1399350
1128.873, 0.1131900
1129.355, 6.6899997E-04
1129.837, 5.0271999E-02
1130.319, 1.0328000E-02
1130.801, 5.3055000E-02
1131.283, 0.1083060
1131.766, 0.1483680
1132.248, 0.1613570
1132.730, 0.1544440
1133.212, 0.1598580
1133.694, 0.1755930
1134.176, 0.1656960
1134.658, 0.1304190
1135.140, 0.1400180
1135.622, 0.2187610
1136.104, 0.3154590
1136.587, 0.3938840
1137.069, 0.4284670
1137.551, 0.3295740
1138.033, 0.1516030
1138.515, 8.8124998E-02
1138.997, 0.1228930
1139.479, 0.1451380
1139.961, 0.1330780
1140.444, 0.1358870
1140.926, 0.1838040
1141.408, 0.2279220
1141.890, 0.1876570
1142.372, 0.1193270
1142.854, 0.1242250
1143.336, 0.1750730
1143.818, 0.2226310
1144.301, 0.2559320
1144.783, 0.2726540
1145.265, 0.2710580
1145.747, 0.2393900
1146.229, 0.1299890
1146.711, 4.8909001E-02
1147.193, 0.1723860
1147.675, 0.3260650
1148.157, 0.2424350
1148.640, 4.3058999E-02
1149.122, 9.1220001E-03
1149.604, 0.1542690
1150.086, 0.2400330
1150.568, 0.1457300
1151.050, 2.5310000E-02
1151.532, 7.9051003E-02
1152.014, 0.1274170
1152.496, 5.7788000E-02
1152.979, 5.7799000E-02
1153.461, 0.1691540
1153.943, 0.2491920
1154.425, 0.2394430
1154.907, 0.1157940
1155.389, 2.9485000E-02
1155.871, 3.7478998E-02
1156.353, 7.1266003E-02
1156.836, 0.1427650
1157.318, 0.1971160
1157.800, 0.1887210
1158.282, 0.1462890
1158.764, 9.5209002E-02
1159.246, 4.1781999E-02
1159.728, 5.4506000E-02
1160.210, 0.2355090
1160.693, 0.3184600
1161.175, 0.2153900
1161.657, 0.1422720
1162.139, 0.1964570
1162.621, 0.2674460
1163.103, 0.2480750
1163.585, 0.1822980
1164.067, 0.1941400
1164.549, 0.2976670
1165.031, 0.3889930
1165.514, 0.4899220
1165.996, 0.4845820
1166.478, 0.3133720
1166.960, 0.1746890
1167.442, 0.1794400
1167.924, 0.2573840
1168.406, 0.3298790
1168.888, 0.3806850
1169.371, 0.2904470
1169.853, 6.3816004E-02
1170.335, 1.5667001E-02
1170.817, 0.1631390
1171.299, 0.2456490
1171.781, 0.1825590
1172.263, 0.1460710
1172.745, 0.2761330
1173.228, 0.4513470
1173.710, 0.4594390
1174.192, 0.3411320
1174.674, 0.2177450
1175.156, 0.1200740
1175.638, 0.1424250
1176.120, 0.2659530
1176.602, 0.3427020
1177.084, 0.3133920
1177.567, 0.2663570
1178.049, 0.2766960
1178.531, 0.3055690
1179.013, 0.3020870
1179.495, 0.2954410
1179.977, 0.3416330
1180.459, 0.4078780
1180.941, 0.4370420
1181.423, 0.4123510
1181.906, 0.3207370
1182.388, 0.1205280
1182.870, 1.5071000E-02
1183.352, 4.6505000E-02
1183.834, 0.1507320
1184.316, 0.2384730
1184.798, 0.2954000
1185.280, 0.2980200
1185.763, 0.2662480
1186.245, 0.2348340
1186.727, 0.2078030
1187.209, 0.2067050
1187.691, 0.2644370
1188.173, 0.3014770
1188.655, 0.2753780
1189.137, 0.2606600
1189.620, 0.3037860
1190.102, 0.3571470
1190.584, 0.3819630
1191.066, 0.3764180
1191.548, 0.3223820
1192.030, 0.1869730
1192.512, 0.1854800
1192.994, 0.3830550
1193.476, 0.4651170
1193.958, 0.3439360
1194.441, 0.2037710
1194.923, 0.1396740
1195.405, 0.1438350
1195.887, 0.2207930
1196.369, 0.3400230
1196.851, 0.3694300
1197.333, 0.3205110
1197.815, 0.3163490
1198.298, 0.3586680
1198.780, 0.3736790
1199.262, 0.3441800
1199.744, 0.3307410
1200.226, 0.3781330
1200.708, 0.4182400
1201.190, 0.3336430
1201.672, 0.2041870
1202.155, 0.1552300
1202.637, 0.1697460
1203.119, 0.2419110
1203.601, 0.3389520
1204.083, 0.3788080
1204.565, 0.3436730
1205.047, 0.3075350
1205.529, 0.3216640
1206.011, 0.3256530
1206.494, 0.2649870
1206.976, 0.1970280
1207.458, 0.1594720
1207.940, 0.1442220
1208.422, 0.1539020
1208.904, 0.1724610
1209.386, 0.1447990
1209.868, 4.6045002E-02
1210.350, 1.5000000E-03
1210.833, 5.3817000E-02
1211.315, 0.1192510
1211.797, 0.2075890
1212.279, 0.2757550
1212.761, 0.3045510
1213.243, 0.3023960
1213.725, 0.2693180
1214.207, 0.2158940
1214.690, 0.1921790
1215.172, 0.2055690
1215.654, 0.2039440
1216.136, 0.1782090
1216.618, 0.2055630
1217.100, 0.3120470
1217.582, 0.3975260
1218.064, 0.4030700
1218.547, 0.3622420
1219.029, 0.3160750
1219.511, 0.2604400
1219.993, 0.1571860
1220.475, 3.9437000E-02
1220.957, 3.6787000E-02
1221.439, 0.1247600
1221.921, 0.1702730
1222.403, 0.1473420
1222.885, 0.1212490
1223.368, 0.1257400
1223.850, 0.1583590
1224.332, 0.2352570
1224.814, 0.3192880
1225.296, 0.3805070
1225.778, 0.4250820
1226.260, 0.4530320
1226.742, 0.4698630
1227.225, 0.4967920
1227.707, 0.5292480
1228.189, 0.4992930
1228.671, 0.3443670
1229.153, 0.2179460
1229.635, 0.1992670
1230.117, 0.1586340
1230.599, 3.5153002E-02
1231.082, 0.1842740
1231.564, 0.1036870
1232.046, 9.5743999E-02
1232.528, 0.2138600
1233.010, 0.2496890
1233.492, 0.2684220
1233.974, 0.2677810
1234.456, 0.2454820
1234.938, 0.1935210
1235.421, 0.1701520
1235.903, 0.1974730
1236.385, 0.2384770
1236.867, 0.2690780
1237.349, 0.2694280
1237.831, 0.1582020
1238.313, 5.0949999E-03
1238.795, 9.6941002E-02
1239.277, 0.3377180
1239.760, 0.4183080
1240.242, 0.3434150
1240.724, 0.2778770
1241.206, 0.2731440
1241.688, 0.2876460
1242.170, 0.3072530
1242.652, 0.2987970
1243.134, 0.1847610
1243.617, 8.7284997E-02
1244.099, 0.1507950
1244.581, 0.2535100
1245.063, 0.2432480
1245.545, 0.1617720
1246.027, 0.1228670
1246.509, 0.1436560
1246.991, 0.1970660
1247.474, 0.3609160
1247.956, 0.4230530
1248.438, 0.2874690
1248.920, 0.1723820
1249.402, 0.1421320
1249.884, 0.1597070
1250.366, 0.2096350
1250.848, 0.2703510
1251.330, 0.2992060
1251.813, 0.2973710
1252.295, 0.2768830
1252.777, 0.2382970
1253.259, 0.2364620
1253.741, 0.2733570
1254.223, 0.2770120
1254.705, 0.2280750
1255.187, 0.1993090
1255.669, 0.2438770
1256.152, 0.3181930
1256.634, 0.3975610
1257.116, 0.4124680
1257.598, 0.3427090
1258.080, 0.2429000
1258.562, 0.1541940
1259.044, 0.1027600
1259.526, 0.1525740
1260.009, 0.2927680
1260.491, 0.3577340
1260.973, 0.2438920
1261.455, 0.1601280
1261.937, 0.2024670
1262.419, 0.2426410
1262.901, 0.1938080
1263.383, 0.1615540
1263.865, 0.2591310
1264.348, 0.3957080
1264.830, 0.4414830
1265.312, 0.4000260
1265.794, 0.2892300
1266.276, 7.8847997E-02
1266.758, 1.5732000E-02
1267.240, 2.2892000E-02
1267.722, 9.5651001E-02
1268.204, 0.1807650
1268.687, 0.2149280
1269.169, 0.1571370
1269.651, 0.1007720
1270.133, 0.1745940
1270.615, 0.3010710
1271.097, 0.3366420
1271.579, 0.3164430
1272.061, 0.3047080
1272.544, 0.2937000
1273.026, 0.2487770
1273.508, 0.1738130
1273.990, 0.1000710
1274.472, 3.5971999E-02
1274.954, 4.7610002E-03
1275.436, 3.7639000E-02
1275.918, 9.2812002E-02
1276.401, 0.1700870
1276.883, 0.2062550
1277.365, 0.1052160
1277.847, 8.4990002E-03
1278.329, 1.7038001E-02
1278.811, 0.1278280
1279.293, 0.1679160
1279.775, 0.1684230
1280.257, 0.1651550
1280.740, 9.8801002E-02
1281.222, 7.1657002E-02
1281.704, 2.8935000E-02
1282.186, 4.7519999E-03
1282.668, 0.0000000E+00
##END=



