##NAMES=Eosphorite
##RRUFFID=R060293
##IDEAL CHEMISTRY=Mn^2+^AlPO_4_(OH)_2_&#183;H_2_O
##LOCALITY=Mawi area, Nuristan, Laghman Province, Afghanistan
##OWNER=RRUFF
##SOURCE=Herb Obodda
##DESCRIPTION=Orange brown prismatic crystal
##STATUS=The identification of this mineral has been confirmed by X-ray diffraction and chemical analysis
##URL=rruff.info/R060293
##MEASURED CHEMISTRY=(Mn^2+^_0.67_Fe^2+^_0.30_Ca_0.03_)_Σ=1_Al_1.00_(P_1.00_O_4_)(OH)_2_·H_2_O
130.5847, 0.0000000E+00
131.0668, 2.519348
131.5489, 8.172974
132.0310, 11.48749
132.5131, 12.24506
132.9952, 9.703003
133.4774, 5.921143
133.9595, 2.081909
134.4416, 0.6290890
134.9237, 0.3974000
135.4058, 3.483643
135.8879, 5.892822
136.3701, 4.492981
136.8522, 2.461304
137.3343, 1.364868
137.8164, 1.738220
138.2985, 2.709473
138.7806, 2.678040
139.2628, 0.5403440
139.7449, 0.5438840
140.2270, 0.5802610
140.7091, 2.314148
141.1912, 3.100342
141.6733, 2.230774
142.1555, 0.3003540
142.6376, 0.6327510
143.1197, 0.5404660
143.6018, 0.6024170
144.0839, 3.661194
144.5660, 7.684204
145.0482, 11.43054
145.5303, 14.31323
146.0124, 16.16003
146.4945, 15.76117
146.9766, 10.96851
147.4587, 6.561340
147.9409, 4.980347
148.4230, 5.756042
148.9051, 6.480896
149.3872, 5.267700
149.8693, 2.567078
150.3514, 1.214783
150.8336, 2.010254
151.3157, 3.712708
151.7978, 5.549011
152.2799, 7.616150
152.7620, 9.076172
153.2441, 8.849976
153.7263, 7.590088
154.2084, 6.242493
154.6905, 4.533752
155.1726, 3.030640
155.6547, 3.203979
156.1368, 5.898315
156.6190, 8.807617
157.1011, 11.03467
157.5832, 12.55750
158.0653, 13.28149
158.5474, 12.73792
159.0295, 11.07330
159.5117, 10.26532
159.9938, 10.71637
160.4759, 11.74121
160.9580, 13.17908
161.4401, 14.97949
161.9222, 17.10516
162.4044, 19.63068
162.8865, 22.72833
163.3686, 25.25726
163.8507, 27.40875
164.3328, 28.90942
164.8149, 29.01013
165.2971, 28.04163
165.7792, 27.31079
166.2613, 28.46204
166.7434, 32.48834
167.2255, 35.59973
167.7076, 37.30725
168.1898, 38.60510
168.6719, 40.01001
169.1540, 41.68726
169.6361, 43.74805
170.1182, 46.51221
170.6003, 50.74084
171.0825, 53.59863
171.5646, 54.11401
172.0467, 53.51453
172.5288, 53.14746
173.0109, 53.39697
173.4930, 53.90356
173.9752, 54.18530
174.4573, 54.33911
174.9394, 54.01038
175.4215, 52.46130
175.9036, 50.34741
176.3857, 49.29688
176.8679, 50.13757
177.3500, 51.62744
177.8321, 51.80164
178.3142, 50.47925
178.7963, 49.77197
179.2784, 51.72107
179.7606, 55.90222
180.2427, 58.70972
180.7248, 58.64954
181.2069, 57.19653
181.6890, 55.26978
182.1711, 52.88037
182.6533, 51.18701
183.1354, 51.72400
183.6175, 54.83997
184.0996, 57.43225
184.5817, 57.98877
185.0638, 58.29846
185.5460, 59.58215
186.0281, 62.07300
186.5102, 64.77307
186.9923, 66.18518
187.4744, 65.73816
187.9565, 65.48132
188.4387, 65.35083
188.9208, 65.57861
189.4029, 66.22632
189.8850, 67.32202
190.3671, 68.86377
190.8492, 71.02332
191.3314, 74.79736
191.8135, 77.46741
192.2956, 78.39880
192.7777, 78.52686
193.2598, 78.46423
193.7419, 78.42200
194.2241, 78.44238
194.7062, 78.62903
195.1883, 78.96631
195.6704, 79.53296
196.1525, 80.59290
196.6346, 81.79688
197.1168, 82.65186
197.5989, 82.91980
198.0810, 82.91541
198.5631, 83.54150
199.0452, 85.85425
199.5273, 87.37537
200.0095, 86.63000
200.4916, 84.97168
200.9737, 84.66187
201.4558, 86.77795
201.9379, 90.72900
202.4200, 95.18811
202.9022, 101.5399
203.3843, 106.0786
203.8664, 105.9352
204.3485, 102.7422
204.8306, 101.1613
205.3127, 103.6456
205.7949, 108.4736
206.2770, 111.7042
206.7591, 112.9762
207.2412, 113.6848
207.7233, 115.1729
208.2054, 117.0940
208.6876, 117.1471
209.1697, 113.5409
209.6518, 108.1780
210.1339, 103.9952
210.6160, 101.1461
211.0981, 99.34363
211.5803, 98.58130
212.0624, 98.87634
212.5445, 99.65125
213.0266, 102.1561
213.5087, 104.0101
213.9908, 102.5565
214.4730, 97.02319
214.9551, 90.44141
215.4372, 85.84753
215.9193, 83.34485
216.4014, 82.39685
216.8836, 84.12805
217.3657, 86.49133
217.8478, 88.45056
218.3299, 89.81567
218.8120, 90.40015
219.2941, 89.39966
219.7763, 85.88916
220.2584, 83.39709
220.7405, 82.90259
221.2226, 83.46655
221.7047, 85.00220
222.1868, 87.39038
222.6690, 89.56836
223.1511, 89.37769
223.6332, 84.67578
224.1153, 82.61133
224.5974, 85.89746
225.0795, 90.33801
225.5617, 92.86633
226.0438, 92.65002
226.5259, 91.06323
227.0080, 90.53687
227.4901, 92.09509
227.9722, 92.86963
228.4544, 92.60962
228.9365, 91.76697
229.4186, 90.72351
229.9007, 89.57751
230.3828, 88.11670
230.8649, 85.95154
231.3471, 82.47302
231.8292, 79.19287
232.3113, 74.86804
232.7934, 71.40918
233.2755, 71.11060
233.7576, 74.38416
234.2398, 78.87280
234.7219, 80.63684
235.2040, 77.80103
235.6861, 75.26123
236.1682, 72.99365
236.6503, 71.01404
237.1325, 69.17053
237.6146, 67.46118
238.0967, 66.37988
238.5788, 66.90564
239.0609, 70.61865
239.5430, 72.09070
240.0252, 69.13684
240.5073, 64.83984
240.9894, 62.16504
241.4715, 61.80908
241.9536, 62.86121
242.4357, 64.39734
242.9179, 66.68835
243.4000, 68.17542
243.8821, 67.30640
244.3642, 66.21143
244.8463, 67.87488
245.3284, 73.03503
245.8106, 78.46814
246.2927, 79.78979
246.7748, 76.80017
247.2569, 75.29907
247.7390, 77.62866
248.2211, 81.24084
248.7033, 82.84094
249.1854, 81.76025
249.6675, 80.14319
250.1496, 80.68396
250.6317, 82.93433
251.1138, 83.51221
251.5960, 79.86096
252.0781, 74.94141
252.5602, 72.96948
253.0423, 74.74597
253.5244, 77.05200
254.0065, 77.26294
254.4887, 75.83521
254.9708, 73.69287
255.4529, 71.02283
255.9350, 67.78210
256.4171, 63.52466
256.8992, 57.88928
257.3813, 52.85510
257.8635, 51.18030
258.3456, 50.99072
258.8277, 48.91418
259.3098, 42.25781
259.7919, 34.25061
260.2740, 30.04944
260.7562, 30.55255
261.2383, 30.96069
261.7204, 27.93597
262.2025, 23.29926
262.6846, 19.11670
263.1667, 15.98627
263.6489, 13.53900
264.1310, 11.47498
264.6131, 10.00800
265.0952, 7.983276
265.5773, 6.480275
266.0594, 5.876114
266.5416, 3.939941
267.0237, 5.113281
267.5058, 5.118225
267.9879, 4.925720
268.4700, 4.481750
268.9521, 4.047058
269.4343, 3.872620
269.9164, 3.640198
270.3985, 3.044800
270.8806, 1.991150
271.3627, 0.7828370
271.8448, 0.4227290
272.3270, -5.2257136E-02
272.8091, 2.237122
273.2912, 9.1124997E-02
273.7733, 2.294250
274.2554, 3.382263
274.7375, 2.942322
275.2197, 2.005249
275.7018, 1.883911
276.1839, 2.833557
276.6660, 2.914185
277.1481, 2.880080
277.6302, 3.250790
278.1124, 2.923462
278.5945, 3.801208
279.0766, 4.527893
279.5587, 5.714233
280.0408, 7.447449
280.5229, 8.910339
281.0051, 10.01599
281.4872, 10.86859
281.9693, 10.84570
282.4514, 10.42773
282.9335, 11.05548
283.4156, 14.45685
283.8978, 20.72015
284.3799, 25.61810
284.8620, 28.98175
285.3441, 30.92218
285.8262, 30.65424
286.3083, 28.97504
286.7905, 27.38654
287.2726, 26.76196
287.7547, 27.14087
288.2368, 29.17194
288.7189, 35.01416
289.2010, 39.78210
289.6832, 41.16479
290.1653, 40.95319
290.6474, 42.03021
291.1295, 46.25787
291.6116, 52.63184
292.0938, 56.93079
292.5759, 57.71936
293.0580, 58.24969
293.5401, 59.28363
294.0222, 60.42725
294.5043, 60.87451
294.9865, 60.20642
295.4686, 59.46710
295.9507, 61.55286
296.4328, 69.31482
296.9149, 74.73322
297.3970, 75.66821
297.8792, 74.92285
298.3613, 74.93329
298.8434, 76.42908
299.3255, 78.38367
299.8076, 78.90369
300.2897, 76.79755
300.7719, 75.98389
301.2540, 77.39679
301.7361, 79.38434
302.2182, 80.90308
302.7003, 81.82355
303.1824, 82.90063
303.6646, 85.62225
304.1467, 91.35449
304.6288, 93.38251
305.1109, 88.01300
305.5930, 82.56610
306.0751, 80.77008
306.5573, 82.25781
307.0394, 84.37866
307.5215, 85.03979
308.0036, 84.17340
308.4857, 83.14746
308.9678, 82.51044
309.4500, 81.18652
309.9321, 78.73389
310.4142, 75.35211
310.8963, 71.31781
311.3784, 66.60657
311.8605, 61.39459
312.3427, 57.47571
312.8248, 56.01782
313.3069, 54.65332
313.7890, 52.87543
314.2711, 50.95374
314.7532, 49.39661
315.2354, 48.50293
315.7175, 47.81757
316.1996, 45.90265
316.6817, 40.97308
317.1638, 37.70795
317.6459, 37.91730
318.1281, 39.12085
318.6102, 39.13635
319.0923, 37.27478
319.5744, 34.31964
320.0565, 31.42786
320.5386, 28.26465
321.0208, 26.04053
321.5029, 25.23529
321.9850, 24.84357
322.4671, 24.37811
322.9492, 23.73962
323.4313, 22.97144
323.9135, 22.11237
324.3956, 21.11823
324.8777, 19.58252
325.3598, 16.06110
325.8419, 13.45581
326.3240, 13.52014
326.8062, 15.57697
327.2883, 17.63806
327.7704, 18.19971
328.2525, 17.35559
328.7346, 16.40576
329.2167, 15.21600
329.6989, 14.07440
330.1810, 13.29449
330.6631, 12.49701
331.1452, 11.02045
331.6273, 8.350586
332.1094, 5.000732
332.5916, 2.400024
333.0737, 0.5695190
333.5558, 0.3928830
334.0379, 0.3897710
334.5200, 0.2501830
335.0021, 1.327271
335.4843, 2.715088
335.9664, 4.366455
336.4485, 6.620544
336.9306, 10.18213
337.4127, 12.18542
337.8948, 11.40625
338.3770, 9.786682
338.8591, 8.147644
339.3412, 6.699219
339.8233, 5.534424
340.3055, 4.808167
340.7876, 4.570496
341.2697, 4.280457
341.7518, 3.822998
342.2339, 3.431091
342.7160, 3.290771
343.1982, 3.293091
343.6803, 3.177979
344.1624, 2.777466
344.6445, 2.120544
345.1266, 1.230286
345.6087, 0.5681150
346.0909, 1.413818
346.5730, 0.1007080
347.0551, 2.489563
347.5372, 3.797485
348.0193, 3.123108
348.5014, 1.433472
348.9836, 0.4014890
349.4657, 0.1060790
349.9478, 0.2330930
350.4299, 1.171875
350.9120, 2.215820
351.3941, 2.918457
351.8763, 3.187988
352.3584, 3.051819
352.8405, 2.080444
353.3226, 0.2089840
353.8047, 0.2087400
354.2868, 2.532532
354.7690, 5.378174
355.2511, 6.390259
355.7332, 5.792175
356.2153, 4.778503
356.6974, 3.952576
357.1795, 3.306091
357.6617, 2.927307
358.1438, 3.163330
358.6259, 2.933228
359.1080, 3.227483
359.5901, 1.689636
360.0722, 3.490723
360.5544, 3.781616
361.0365, 3.042542
361.5186, 1.463257
362.0007, 1.188538
362.4828, 2.699219
362.9649, 0.9019170
363.4471, 1.804688
363.9292, 2.432129
364.4113, 0.2401120
364.8934, 2.026733
365.3755, 1.916321
365.8576, 0.1112670
366.3398, 1.460327
366.8219, 1.305115
367.3040, 0.6434330
367.7861, 0.6109010
368.2682, 1.134399
368.7503, 1.423950
369.2325, 0.9995730
369.7146, 0.1878660
370.1967, 0.3928220
370.6788, 0.6365360
371.1609, 1.023499
371.6430, 2.312012
372.1252, 4.064392
372.6073, 4.789551
373.0894, 3.428467
373.5715, 1.661316
374.0536, 0.8269040
374.5357, 0.8009030
375.0179, 0.8098750
375.5000, 0.4599610
375.9821, 5.1575001E-02
376.4642, 0.2226560
376.9463, 0.1571660
377.4284, 0.3590700
377.9106, 0.1964110
378.3927, 1.034973
378.8748, 1.349121
379.3569, 0.9168700
379.8390, 4.7363002E-02
380.3211, 1.514832
380.8033, 3.726013
381.2854, 4.877258
381.7675, 3.538452
382.2496, 2.022156
382.7317, 2.539795
383.2138, 4.962524
383.6960, 7.068420
384.1781, 6.873413
384.6602, 4.695313
385.1423, 5.325684
385.6244, 11.53668
386.1065, 16.89325
386.5887, 18.56580
387.0708, 18.07269
387.5529, 18.33295
388.0350, 20.68054
388.5171, 23.69031
388.9992, 24.17865
389.4814, 19.22137
389.9635, 16.17468
390.4456, 15.03046
390.9277, 15.72418
391.4098, 19.29688
391.8919, 25.31616
392.3741, 31.15179
392.8562, 33.94189
393.3383, 33.28546
393.8204, 32.38287
394.3025, 29.57709
394.7846, 28.24408
395.2668, 30.46588
395.7489, 34.91547
396.2310, 39.23492
396.7131, 42.10718
397.1952, 43.67419
397.6773, 44.36609
398.1595, 43.41870
398.6416, 42.83411
399.1237, 42.59198
399.6058, 42.92651
400.0879, 44.53796
400.5700, 47.39117
401.0522, 49.96326
401.5343, 50.16711
402.0164, 47.54974
402.4985, 45.21021
402.9806, 42.77350
403.4627, 41.07648
403.9449, 41.06525
404.4270, 42.29547
404.9091, 43.29517
405.3912, 43.19659
405.8733, 42.17853
406.3554, 40.61475
406.8376, 38.01532
407.3197, 36.02435
407.8018, 36.67322
408.2839, 37.66589
408.7660, 36.25641
409.2481, 31.44568
409.7303, 26.06860
410.2124, 22.87012
410.6945, 21.76324
411.1766, 21.23767
411.6587, 21.20294
412.1408, 21.44330
412.6230, 21.87769
413.1051, 22.43292
413.5872, 22.46680
414.0693, 21.36469
414.5514, 19.70496
415.0335, 18.35901
415.5157, 17.37665
415.9978, 16.70325
416.4799, 16.61505
416.9620, 16.74677
417.4441, 15.86908
417.9262, 12.81525
418.4084, 10.34357
418.8905, 10.39648
419.3726, 12.32220
419.8547, 14.55194
420.3368, 16.63367
420.8189, 18.13928
421.3011, 18.05316
421.7832, 16.06146
422.2653, 14.47278
422.7474, 13.56995
423.2295, 12.94482
423.7116, 12.04156
424.1938, 10.88416
424.6759, 10.32001
425.1580, 11.03802
425.6401, 12.93549
426.1222, 14.74323
426.6043, 17.24744
427.0865, 18.82654
427.5686, 18.74786
428.0507, 17.57666
428.5328, 15.72223
429.0149, 13.39185
429.4970, 11.53540
429.9792, 11.99518
430.4613, 16.42767
430.9434, 19.58411
431.4255, 21.44867
431.9076, 22.32410
432.3897, 22.12146
432.8719, 21.05096
433.3540, 19.43787
433.8361, 17.21216
434.3182, 14.74060
434.8003, 15.00513
435.2824, 21.09485
435.7646, 25.13037
436.2467, 23.62335
436.7288, 20.05353
437.2109, 18.13440
437.6930, 19.02344
438.1751, 21.13080
438.6573, 22.49829
439.1394, 23.04108
439.6215, 24.00928
440.1036, 25.57343
440.5857, 27.63647
441.0678, 30.40430
441.5500, 33.64813
442.0321, 36.54413
442.5142, 38.79675
442.9963, 40.40125
443.4784, 41.03320
443.9605, 40.50000
444.4427, 40.52228
444.9248, 42.20844
445.4069, 44.85034
445.8890, 47.23566
446.3711, 49.22064
446.8532, 51.25732
447.3354, 53.87299
447.8175, 56.68512
448.2996, 58.67987
448.7817, 59.52026
449.2638, 60.26550
449.7459, 61.92737
450.2281, 64.43719
450.7102, 67.53870
451.1923, 72.13965
451.6744, 76.57440
452.1565, 79.56293
452.6386, 81.46082
453.1208, 83.49323
453.6029, 86.35004
454.0850, 89.60425
454.5671, 92.05402
455.0492, 91.78204
455.5313, 93.38855
456.0135, 99.02167
456.4956, 105.2876
456.9777, 108.8016
457.4598, 109.2699
457.9419, 109.6293
458.4240, 112.7220
458.9062, 118.6013
459.3883, 123.2206
459.8704, 125.8722
460.3525, 127.9905
460.8346, 129.7031
461.3167, 131.1695
461.7989, 132.6914
462.2810, 134.4000
462.7631, 135.7190
463.2452, 135.4149
463.7273, 133.0128
464.2094, 131.3890
464.6916, 131.7258
465.1737, 132.2454
465.6558, 132.2777
466.1379, 131.6803
466.6200, 130.1867
467.1021, 127.2385
467.5843, 123.4840
468.0664, 119.9344
468.5485, 116.3721
469.0306, 113.7109
469.5127, 113.4689
469.9948, 113.8601
470.4770, 111.7304
470.9591, 106.1028
471.4412, 101.0330
471.9233, 99.58905
472.4054, 99.86365
472.8875, 98.32867
473.3697, 94.30225
473.8518, 89.04865
474.3339, 83.36707
474.8160, 77.35870
475.2981, 72.58398
475.7802, 69.46039
476.2624, 66.74615
476.7445, 64.05768
477.2266, 61.43140
477.7087, 58.68079
478.1908, 55.69324
478.6729, 53.07544
479.1551, 52.09833
479.6372, 54.51190
480.1193, 54.36230
480.6014, 49.87762
481.0835, 44.77222
481.5656, 40.77026
482.0478, 37.94720
482.5299, 35.87177
483.0120, 34.35022
483.4941, 33.19965
483.9762, 31.76514
484.4583, 29.85400
484.9405, 28.06848
485.4226, 26.80127
485.9047, 25.51349
486.3868, 23.57654
486.8689, 21.00201
487.3510, 18.73322
487.8332, 17.48834
488.3153, 17.21271
488.7974, 17.93347
489.2795, 20.38489
489.7616, 22.01337
490.2437, 20.65216
490.7259, 17.57739
491.2080, 14.32941
491.6901, 10.42993
492.1722, 7.921692
492.6543, 9.714355
493.1364, 14.15991
493.6186, 16.33844
494.1007, 14.80701
494.5828, 11.53894
495.0649, 8.227661
495.5470, 4.780762
496.0291, 3.405884
496.5113, 6.246338
496.9934, 9.245056
497.4755, 9.908569
497.9576, 8.823303
498.4397, 7.621216
498.9218, 7.080383
499.4040, 6.982727
499.8861, 6.924194
500.3682, 7.529175
500.8503, 6.949768
501.3324, 3.579956
501.8145, 0.5249630
502.2967, 0.1129150
502.7788, 1.334351
503.2609, 3.258423
503.7430, 4.652893
504.2251, 5.536438
504.7072, 6.038574
505.1894, 6.369873
505.6715, 5.807068
506.1536, 2.834473
506.6357, 0.2088620
507.1178, 1.277954
507.5999, 0.1833500
508.0821, 1.393433
508.5642, 2.296265
509.0463, 2.726807
509.5284, 3.385559
510.0105, 4.450317
510.4926, 5.108582
510.9748, 4.487671
511.4569, 3.195984
511.9390, 2.794617
512.4211, 2.351380
512.9032, 2.116960
513.3853, 2.321594
513.8674, 1.542664
514.3495, 2.402588
514.8317, 0.6613160
515.3138, 4.565063
515.7959, 6.245605
516.2780, 5.560059
516.7601, 4.509155
517.2422, 2.631592
517.7244, 0.9559330
518.2065, 0.1477050
518.6886, 0.8414310
519.1707, 1.433350
519.6528, 2.017639
520.1349, 2.346924
520.6171, 1.933899
521.0992, 2.080213
521.5813, 2.154136
522.0634, 1.533020
522.5455, 1.947449
523.0276, 1.570068
523.5098, 0.5769650
523.9919, 0.8538820
524.4740, 2.875793
524.9561, 4.666382
525.4382, 4.722168
525.9203, 3.004089
526.4025, 1.870728
526.8846, 2.302063
527.3667, 2.911011
527.8488, 2.056091
528.3309, 2.056023
528.8130, 1.356750
529.2952, 1.082153
529.7773, 0.2634890
530.2594, 6.6101000E-02
530.7415, 0.2911990
531.2236, 0.2830810
531.7057, 2.429688
532.1879, 4.974548
532.6700, 5.591736
533.1521, 3.227905
533.6342, 1.225159
534.1163, 0.6094360
534.5984, 1.856506
535.0806, 1.726196
535.5627, 0.7270510
536.0448, 0.2701420
536.5269, 1.270142
537.0090, 3.230225
537.4911, 4.580444
537.9733, 4.834900
538.4554, 5.571716
538.9375, 8.278076
539.4196, 10.43188
539.9017, 9.843018
540.3839, 7.020447
540.8660, 4.619568
541.3481, 4.459167
541.8302, 5.804260
542.3123, 7.170715
542.7944, 8.584534
543.2766, 9.843872
543.7587, 11.07263
544.2408, 11.90991
544.7229, 11.37946
545.2050, 9.127808
545.6871, 8.606628
546.1693, 12.85596
546.6514, 18.27740
547.1335, 20.79242
547.6156, 20.42474
548.0977, 19.41528
548.5798, 18.92267
549.0620, 19.08289
549.5441, 20.36334
550.0262, 25.02106
550.5083, 27.72858
550.9904, 26.29120
551.4725, 24.53046
551.9547, 25.66406
552.4368, 29.37970
552.9189, 33.03473
553.4010, 34.42419
553.8831, 34.48486
554.3652, 37.47412
554.8474, 45.37384
555.3295, 51.16937
555.8116, 50.89362
556.2937, 49.36511
556.7758, 50.15930
557.2579, 53.37646
557.7401, 56.41510
558.2222, 57.47339
558.7043, 57.48541
559.1864, 58.46692
559.6685, 60.45715
560.1506, 61.15045
560.6328, 59.33484
561.1149, 55.70099
561.5970, 51.29578
562.0791, 45.34460
562.5612, 41.18744
563.0433, 41.36566
563.5255, 42.13782
564.0076, 39.92059
564.4897, 35.08502
564.9718, 30.36902
565.4539, 27.61829
565.9360, 26.53802
566.4182, 26.36749
566.9003, 28.20544
567.3824, 28.84973
567.8645, 25.88770
568.3466, 23.66199
568.8287, 25.85144
569.3109, 31.49719
569.7930, 36.50427
570.2751, 38.26886
570.7572, 37.90851
571.2393, 37.42383
571.7214, 36.61499
572.2036, 36.46271
572.6857, 37.59991
573.1678, 39.48395
573.6499, 41.37457
574.1320, 43.25757
574.6141, 46.46051
575.0963, 53.17218
575.5784, 59.86725
576.0605, 62.60803
576.5426, 62.49878
577.0247, 63.81122
577.5068, 68.59924
577.9890, 74.98645
578.4711, 79.39197
578.9532, 80.60150
579.4353, 83.11530
579.9174, 87.43219
580.3995, 92.29126
580.8817, 97.66425
581.3638, 103.0018
581.8459, 107.2799
582.3280, 109.9545
582.8101, 111.7775
583.2922, 113.6503
583.7744, 115.5650
584.2565, 119.4469
584.7386, 126.3669
585.2207, 133.9913
585.7029, 140.8937
586.1850, 147.3714
586.6671, 153.8824
587.1492, 160.5093
587.6313, 167.1815
588.1135, 173.6638
588.5956, 180.2197
589.0777, 187.5430
589.5598, 195.7303
590.0419, 203.8574
590.5240, 210.9385
591.0062, 217.0487
591.4883, 224.3448
591.9704, 235.1719
592.4525, 244.1111
592.9346, 249.3426
593.4167, 252.2178
593.8989, 254.2513
594.3810, 255.8624
594.8631, 256.7006
595.3452, 256.8030
595.8273, 255.9956
596.3094, 251.9798
596.7916, 243.8096
597.2737, 234.7396
597.7558, 225.6216
598.2379, 216.4224
598.7200, 207.4012
599.2021, 198.6876
599.6843, 188.6728
600.1664, 173.9235
600.6485, 158.8715
601.1306, 151.2366
601.6127, 150.7457
602.0948, 149.3541
602.5770, 142.2245
603.0591, 131.4275
603.5412, 122.6039
604.0233, 115.7247
604.5054, 111.1592
604.9875, 110.3856
605.4697, 110.7140
605.9518, 111.0293
606.4339, 110.9534
606.9160, 109.7446
607.3981, 106.8682
607.8802, 103.1763
608.3624, 100.2011
608.8445, 97.93927
609.3266, 96.55847
609.8087, 96.35583
610.2908, 96.73236
610.7729, 97.18970
611.2551, 97.82544
611.7372, 98.99872
612.2193, 101.4122
612.7014, 103.6487
613.1835, 104.6010
613.6656, 104.6082
614.1478, 104.5688
614.6299, 104.7148
615.1120, 104.2775
615.5941, 102.2568
616.0762, 98.63220
616.5583, 96.42706
617.0405, 97.27820
617.5226, 97.47113
618.0047, 96.34741
618.4868, 94.31567
618.9689, 91.52472
619.4510, 88.16779
619.9332, 84.88464
620.4153, 82.42426
620.8974, 80.41370
621.3795, 77.32343
621.8616, 72.77014
622.3438, 69.29828
622.8259, 68.49017
623.3080, 68.69708
623.7901, 67.70056
624.2722, 65.45453
624.7543, 63.16962
625.2365, 61.12842
625.7186, 59.19611
626.2007, 57.30603
626.6828, 55.44165
627.1649, 53.48962
627.6470, 51.37451
628.1292, 49.55377
628.6113, 49.08246
629.0934, 50.61511
629.5755, 50.30084
630.0576, 46.54559
630.5397, 42.66089
631.0219, 39.20642
631.5040, 36.32715
631.9861, 33.97668
632.4682, 32.12085
632.9503, 31.39026
633.4324, 33.31787
633.9146, 36.83826
634.3967, 38.55927
634.8788, 38.16370
635.3609, 36.36591
635.8430, 33.03973
636.3251, 28.90106
636.8073, 26.12708
637.2894, 25.10284
637.7715, 24.24402
638.2536, 23.47601
638.7357, 22.64496
639.2178, 21.65643
639.7000, 20.49652
640.1821, 19.14429
640.6642, 17.56970
641.1463, 15.87335
641.6284, 14.25092
642.1105, 12.73810
642.5927, 11.07837
643.0748, 8.743469
643.5569, 6.940308
644.0390, 6.383057
644.5211, 6.761597
645.0032, 7.602478
645.4854, 9.219055
645.9675, 10.25317
646.4496, 9.046265
646.9317, 6.861877
647.4138, 6.250977
647.8959, 7.502441
648.3781, 8.957764
648.8602, 9.429260
649.3423, 9.060059
649.8244, 8.523071
650.3065, 7.815796
650.7886, 7.232422
651.2708, 6.462524
651.7529, 5.546997
652.2350, 5.201172
652.7171, 5.072449
653.1992, 4.044861
653.6813, 3.787470
654.1635, 1.945740
654.6456, 2.787842
655.1277, 1.554565
655.6098, 1.141846
656.0919, 2.634216
656.5740, 3.436157
657.0562, 0.5349120
657.5383, 5.282166
658.0204, 8.354248
658.5025, 6.519409
658.9846, 4.625122
659.4667, 4.130554
659.9489, 4.222656
660.4310, 4.378906
660.9131, 4.309937
661.3952, 3.296753
661.8773, 0.5084840
662.3594, 3.048950
662.8416, 3.796143
663.3237, 0.8444820
663.8058, 1.678040
664.2879, 3.266663
664.7700, 3.965454
665.2521, 3.436584
665.7343, 2.060303
666.2164, 1.129456
666.6985, 1.283447
667.1806, 1.607910
667.6627, 1.512695
668.1448, 1.115906
668.6270, 0.5534670
669.1091, 0.1153560
669.5912, 0.6878050
670.0733, 1.004333
670.5554, 1.038818
671.0375, 1.656449
671.5197, 1.963733
672.0018, 2.461243
672.4839, 2.854004
672.9660, 2.977539
673.4481, 3.314941
673.9302, 3.762512
674.4124, 3.774963
674.8945, 2.708191
675.3766, 1.691040
675.8587, 2.868225
676.3408, 5.539551
676.8229, 5.858704
677.3051, 2.599548
677.7872, 0.2897340
678.2693, 1.157898
678.7514, 6.396606
679.2335, 9.055664
679.7156, 7.939880
680.1978, 6.423706
680.6799, 3.903137
681.1620, 1.601257
681.6441, 0.8440550
682.1262, 1.479858
682.6083, 2.301697
683.0905, 2.510071
683.5726, 2.513367
684.0547, 3.417236
684.5368, 2.571898
685.0189, 2.738591
685.5010, 1.744751
685.9832, 1.722595
686.4653, 2.539856
686.9474, 1.120544
687.4295, 0.1763310
687.9116, 1.263062
688.3937, 2.266479
688.8759, 3.387085
689.3580, 4.339355
689.8401, 4.810181
690.3222, 4.811279
690.8043, 4.429749
691.2864, 3.611206
691.7686, 2.865234
692.2507, 3.826782
692.7328, 7.004761
693.2149, 8.562439
693.6970, 7.124390
694.1791, 5.224487
694.6613, 4.687500
695.1434, 4.984863
695.6255, 4.856750
696.1076, 3.667725
696.5897, 2.985962
697.0718, 4.351990
697.5540, 6.245789
698.0361, 6.203186
698.5182, 4.447144
699.0003, 3.452515
699.4824, 4.879395
699.9645, 7.510620
700.4467, 8.176086
700.9288, 6.059448
701.4109, 4.931641
701.8930, 6.266113
702.3751, 7.201111
702.8572, 5.716064
703.3394, 3.128418
703.8215, 1.825867
704.3036, 2.546631
704.7857, 3.359131
705.2678, 2.989807
705.7499, 3.117220
706.2321, 1.865112
706.7142, 2.156555
707.1963, 1.615906
707.6784, 0.6314090
708.1605, 3.101196
708.6426, 2.496887
709.1248, 2.695313
709.6069, 5.512512
710.0890, 4.241821
710.5711, 2.549683
711.0532, 1.125916
711.5353, 0.2772830
712.0175, 0.7586060
712.4996, 2.739990
712.9817, 4.097290
713.4638, 2.938293
713.9459, 0.9481810
714.4280, 0.7763060
714.9102, 2.338440
715.3923, 3.842224
715.8744, 4.599670
716.3565, 4.682434
716.8386, 4.072388
717.3207, 2.591553
717.8029, 1.786804
718.2850, 2.118530
718.7671, 2.579346
719.2492, 2.855530
719.7313, 3.217773
720.2134, 4.081665
720.6956, 5.455627
721.1777, 6.428528
721.6598, 5.889648
722.1419, 4.692139
722.6240, 3.798218
723.1061, 3.365967
723.5883, 4.306091
724.0704, 7.003357
724.5525, 9.249939
725.0346, 8.497803
725.5167, 4.852722
725.9988, 2.394531
726.4810, 1.781494
726.9631, 1.440369
727.4452, 0.6464840
727.9273, 0.4438480
728.4094, 2.421448
728.8915, 5.859863
729.3737, 7.836060
729.8558, 6.139771
730.3379, 3.884338
730.8200, 5.235779
731.3021, 8.622986
731.7842, 9.336182
732.2664, 6.602295
732.7485, 3.280579
733.2306, 1.329346
733.7127, 0.7161250
734.1948, 1.464783
734.6769, 5.205811
735.1591, 7.320557
735.6412, 7.416504
736.1233, 6.271545
736.6054, 2.930542
737.0875, 1.069031
737.5696, 2.724182
738.0518, 0.7589110
738.5339, 1.583801
739.0160, 1.250366
739.4981, 0.2856450
739.9802, 0.2951660
740.4623, 1.306641
740.9445, 3.464844
741.4266, 5.756714
741.9087, 7.822571
742.3908, 9.026733
742.8729, 9.317139
743.3550, 8.955444
743.8372, 7.034851
744.3193, 5.364136
744.8014, 4.418457
745.2835, 4.150269
745.7656, 4.836487
746.2477, 6.400940
746.7299, 7.334229
747.2120, 6.132385
747.6941, 4.386230
748.1762, 4.019653
748.6583, 4.682678
749.1404, 5.323364
749.6226, 5.634521
750.1047, 5.574707
750.5868, 5.061707
751.0689, 4.137390
751.5510, 3.146240
752.0331, 1.693604
752.5153, 0.9526980
752.9974, 2.224548
753.4795, 3.281555
753.9616, 2.190002
754.4437, 0.3363650
754.9258, 1.893127
755.4080, 1.486267
755.8901, 0.4920650
756.3722, 0.6495360
756.8543, 1.546753
757.3364, 1.176514
757.8185, 0.2304080
758.3007, 0.8777470
758.7828, 0.4112550
759.2649, 2.560974
759.7470, 3.192871
760.2291, 1.977905
760.7112, 0.7844240
761.1934, 0.7309570
761.6755, 1.620667
762.1576, 1.488220
762.6397, 0.4558720
763.1218, 1.888550
763.6039, 5.886841
764.0861, 8.348999
764.5682, 7.170105
765.0503, 4.981140
765.5324, 3.217834
766.0145, 1.983337
766.4966, 1.794373
766.9788, 2.798706
767.4609, 3.804871
767.9430, 3.879639
768.4251, 3.092529
768.9072, 1.369507
769.3893, 1.826477
769.8715, 3.038940
770.3536, 0.2691040
770.8357, 3.055969
771.3178, 3.490356
771.7999, 1.598999
772.2820, 0.4169310
772.7642, 0.3955080
773.2463, 0.7499390
773.7284, 1.795471
774.2105, 2.723755
774.6926, 2.416016
775.1747, 1.329590
775.6569, 1.024780
776.1390, 2.347839
776.6211, 4.154297
777.1032, 5.142273
777.5853, 5.285583
778.0674, 3.933289
778.5496, 0.7518310
779.0317, 1.318237
779.5138, 0.6299440
779.9959, 1.668640
780.4780, 3.687134
780.9601, 5.473206
781.4423, 6.744629
781.9244, 7.493958
782.4065, 7.769226
782.8886, 7.553040
783.3707, 6.887024
783.8528, 5.512634
784.3350, 3.594543
784.8171, 2.055542
785.2992, 1.169373
785.7813, 1.239807
786.2634, 3.883484
786.7455, 7.840820
787.2277, 8.439941
787.7098, 4.815857
788.1919, 1.146179
788.6740, 0.8108520
789.1561, 2.832520
789.6382, 3.526001
790.1204, 1.795410
790.6025, 1.378662
791.0846, 3.089050
791.5667, 5.457520
792.0488, 9.121826
792.5309, 12.58649
793.0131, 13.12024
793.4952, 9.840820
793.9773, 6.955994
794.4594, 7.095886
794.9415, 7.809509
795.4236, 6.850342
795.9058, 4.959412
796.3879, 3.336914
796.8700, 2.334595
797.3521, 2.232117
797.8342, 3.823181
798.3163, 6.593201
798.7985, 7.154358
799.2806, 4.996338
799.7627, 3.504883
800.2448, 3.569397
800.7269, 4.299011
801.2090, 5.411621
801.6912, 6.607422
802.1733, 6.402283
802.6554, 3.359680
803.1375, 1.186584
803.6196, 0.9110110
804.1017, 1.419250
804.5839, 1.697571
805.0660, 2.171509
805.5481, 4.511719
806.0302, 9.369873
806.5123, 13.19928
806.9944, 11.13934
807.4766, 5.777344
807.9587, 3.604248
808.4408, 4.558899
808.9229, 5.180237
809.4050, 4.158386
809.8871, 2.740479
810.3693, 2.496094
810.8514, 3.428223
811.3335, 3.568787
811.8156, 1.905273
812.2977, 1.066345
812.7798, 1.956848
813.2620, 3.351196
813.7441, 4.739868
814.2262, 5.920654
814.7083, 6.388916
815.1904, 5.638916
815.6725, 5.010620
816.1547, 5.309753
816.6368, 6.235779
817.1189, 7.785950
817.6010, 9.455566
818.0831, 9.642639
818.5652, 7.706604
819.0474, 5.537415
819.5295, 6.122986
820.0116, 9.085327
820.4937, 10.08258
820.9758, 8.634033
821.4579, 8.198669
821.9401, 10.53925
822.4222, 13.13000
822.9043, 13.13708
823.3864, 10.66138
823.8685, 8.695435
824.3506, 7.615784
824.8328, 6.527649
825.3149, 4.757751
825.7970, 3.412903
826.2791, 3.571899
826.7612, 4.759216
827.2433, 5.733154
827.7255, 6.178162
828.2076, 6.391052
828.6897, 5.872192
829.1718, 5.179688
829.6539, 5.735291
830.1360, 7.161194
830.6182, 7.248535
831.1003, 5.149353
831.5824, 2.766235
832.0645, 2.505249
832.5466, 4.129150
833.0287, 4.732849
833.5109, 3.860352
833.9930, 3.350891
834.4751, 3.767151
834.9572, 4.409668
835.4393, 4.870972
835.9214, 5.107605
836.4036, 4.873169
836.8857, 3.440247
837.3678, 2.877380
837.8499, 4.803711
838.3320, 6.656128
838.8141, 6.317444
839.2963, 4.626587
839.7784, 3.162903
840.2605, 2.466309
840.7426, 2.477173
841.2247, 3.410034
841.7068, 4.887207
842.1890, 6.378784
842.6711, 7.795044
843.1532, 8.559387
843.6353, 8.521851
844.1174, 7.990112
844.5995, 7.092529
845.0817, 6.067688
845.5638, 6.245422
846.0459, 8.607544
846.5280, 9.294495
847.0101, 6.183899
847.4922, 3.773376
847.9744, 5.360718
848.4565, 8.657898
848.9386, 10.21558
849.4207, 9.610291
849.9028, 8.414551
850.3849, 6.062988
850.8671, 4.320496
851.3492, 4.798645
851.8313, 6.199890
852.3134, 6.606384
852.7955, 5.899109
853.2776, 5.582275
853.7598, 6.613220
854.2419, 8.043945
854.7240, 7.731628
855.2061, 6.430908
855.6882, 7.257813
856.1703, 10.47760
856.6525, 12.70953
857.1346, 11.77417
857.6167, 9.575989
858.0988, 9.696106
858.5809, 12.56323
859.0630, 14.21979
859.5452, 14.49115
860.0273, 13.99280
860.5094, 11.84607
860.9915, 9.680725
861.4736, 8.832886
861.9557, 9.299011
862.4379, 10.96484
862.9200, 15.55493
863.4021, 18.89679
863.8842, 18.54272
864.3663, 17.17151
864.8484, 16.86646
865.3306, 17.70349
865.8127, 19.33618
866.2948, 21.59479
866.7769, 23.01654
867.2590, 21.07611
867.7411, 17.64459
868.2233, 16.79724
868.7054, 18.25287
869.1875, 20.33820
869.6696, 22.65472
870.1517, 24.01276
870.6339, 23.12915
871.1160, 20.88983
871.5981, 20.86060
872.0802, 23.90881
872.5623, 25.38593
873.0444, 23.91272
873.5266, 22.62750
874.0087, 23.85870
874.4908, 26.15662
874.9729, 26.81494
875.4550, 25.61371
875.9371, 24.12634
876.4193, 21.93207
876.9014, 20.29382
877.3835, 20.27863
877.8656, 20.74274
878.3477, 20.08099
878.8298, 18.57660
879.3120, 18.26489
879.7941, 20.73132
880.2762, 23.19122
880.7583, 22.46411
881.2404, 20.09509
881.7225, 18.56989
882.2047, 18.08722
882.6868, 18.43201
883.1689, 19.50513
883.6510, 20.56427
884.1331, 20.34076
884.6152, 19.22937
885.0974, 20.84174
885.5795, 25.81573
886.0616, 28.84442
886.5437, 28.56677
887.0258, 26.27283
887.5079, 22.26801
887.9901, 17.27246
888.4722, 14.16223
888.9543, 13.93860
889.4364, 13.71783
889.9185, 13.03418
890.4006, 12.89819
890.8828, 14.73828
891.3649, 16.75366
891.8470, 16.59375
892.3291, 14.10699
892.8112, 11.32227
893.2933, 8.167725
893.7755, 5.961792
894.2576, 6.365784
894.7397, 7.667908
895.2218, 7.485779
895.7039, 6.062439
896.1860, 5.287415
896.6682, 6.076599
897.1503, 7.443970
897.6324, 8.519287
898.1145, 9.147461
898.5966, 8.484924
899.0787, 6.708923
899.5609, 5.791199
900.0430, 6.393127
900.5251, 7.327332
901.0072, 7.465149
901.4893, 6.944580
901.9714, 6.468689
902.4536, 6.148621
902.9357, 5.405273
903.4178, 3.816406
903.8999, 2.464111
904.3820, 1.847595
904.8641, 1.869202
905.3463, 2.630859
905.8284, 4.349365
906.3105, 5.047729
906.7926, 3.817810
907.2747, 2.550110
907.7568, 1.469604
908.2390, 0.8802490
908.7211, 1.668396
909.2032, 3.141052
909.6853, 3.113953
910.1674, 3.452656
910.6495, 2.202698
911.1317, 2.709900
911.6138, 3.644409
912.0959, 2.336243
912.5780, 2.529297
913.0601, 1.366760
913.5422, 1.292542
914.0244, 1.072325
914.5065, 2.073608
914.9886, 0.5518800
915.4707, 1.381042
915.9528, 0.7317500
916.4349, 0.7604980
916.9171, 1.769226
917.3992, 2.330444
917.8813, 1.580322
918.3634, 0.3212280
918.8455, 1.6785000E-02
919.3276, 0.6632080
919.8098, 1.480408
920.2919, 1.243225
920.7740, 2.305420
921.2561, 2.184692
921.7382, 1.358948
922.2203, 2.381624
922.7025, 1.969238
923.1846, 3.329285
923.6667, 4.205322
924.1488, 4.545532
924.6309, 4.004761
925.1130, 3.309143
925.5952, 2.925171
926.0773, 2.487732
926.5594, 2.244710
927.0415, 1.570740
927.5236, 1.996460
928.0057, 2.817871
928.4879, 2.847594
928.9700, 2.399943
929.4521, 2.803345
929.9342, 1.010437
930.4163, 0.5738530
930.8984, 0.2266240
931.3806, 0.5041500
931.8627, 1.067017
932.3448, 0.3562620
932.8269, 0.5900880
933.3090, 1.033386
933.7911, 4.450562
934.2733, 6.077087
934.7554, 5.298950
935.2375, 4.539124
935.7196, 5.518982
936.2017, 4.244507
936.6838, 6.463867
937.1660, 3.472107
937.6481, 2.192749
938.1302, 3.055359
938.6123, 3.671143
939.0944, 2.833191
939.5765, 2.390442
940.0587, 4.458008
940.5408, 8.638855
941.0229, 11.92676
941.5050, 13.66650
941.9871, 15.71179
942.4692, 18.46558
942.9514, 21.11920
943.4335, 23.53192
943.9156, 25.54810
944.3977, 26.77441
944.8798, 27.21240
945.3619, 28.00659
945.8441, 28.69867
946.3262, 30.68475
946.8083, 35.09460
947.2904, 40.43878
947.7725, 46.01532
948.2546, 51.40326
948.7368, 55.79877
949.2189, 58.95312
949.7010, 62.42932
950.1831, 67.29102
950.6652, 72.99420
951.1473, 78.23590
951.6295, 84.25226
952.1116, 93.96490
952.5937, 107.0532
953.0758, 119.7123
953.5579, 129.7314
954.0400, 142.8959
954.5222, 152.0101
955.0043, 166.5950
955.4864, 179.1385
955.9685, 189.9130
956.4506, 202.5720
956.9327, 218.1946
957.4149, 234.6044
957.8970, 249.8292
958.3791, 267.4642
958.8612, 285.4559
959.3433, 303.2091
959.8254, 323.4291
960.3076, 342.6214
960.7897, 362.2629
961.2718, 382.3948
961.7539, 404.3418
962.2360, 429.9217
962.7181, 459.0669
963.2003, 488.1376
963.6824, 518.2151
964.1645, 546.0020
964.6466, 570.9521
965.1287, 593.8560
965.6108, 615.3632
966.0930, 634.8552
966.5751, 652.7476
967.0572, 669.7290
967.5393, 676.9851
968.0214, 670.8641
968.5035, 658.2645
968.9857, 641.4153
969.4678, 618.7271
969.9499, 587.1227
970.4320, 549.0687
970.9141, 508.8154
971.3962, 467.0894
971.8784, 427.8890
972.3605, 394.3612
972.8426, 363.0276
973.3247, 331.0909
973.8068, 300.4842
974.2889, 273.1093
974.7711, 249.1840
975.2532, 228.0682
975.7353, 209.6682
976.2174, 193.2103
976.6995, 177.8102
977.1816, 163.9334
977.6638, 152.1030
978.1459, 142.3093
978.6280, 135.3237
979.1101, 130.7289
979.5922, 125.5377
980.0743, 117.4807
980.5565, 108.3718
981.0386, 100.9442
981.5207, 95.20752
982.0028, 91.98907
982.4849, 90.97229
982.9670, 88.46844
983.4492, 83.20880
983.9313, 77.25183
984.4134, 72.50146
984.8955, 68.77350
985.3776, 65.60162
985.8597, 62.81769
986.3419, 59.84344
986.8240, 56.82812
987.3061, 55.08270
987.7882, 55.31927
988.2703, 55.92761
988.7524, 54.80603
989.2346, 52.26996
989.7167, 52.12952
990.1988, 56.01685
990.6809, 57.07111
991.1630, 52.91742
991.6451, 49.24005
992.1273, 48.74219
992.6094, 50.49280
993.0915, 53.74664
993.5736, 58.71387
994.0557, 61.17273
994.5378, 58.61621
995.0200, 57.21545
995.5021, 57.49890
995.9842, 59.11743
996.4663, 62.67487
996.9484, 67.11267
997.4305, 70.74683
997.9127, 73.39355
998.3948, 75.86346
998.8769, 77.67212
999.3590, 80.15594
999.8411, 84.58539
1000.323, 89.06561
1000.805, 91.60693
1001.287, 93.20795
1001.770, 96.15771
1002.252, 101.0165
1002.734, 105.7927
1003.216, 109.6473
1003.698, 113.1766
1004.180, 115.8189
1004.662, 118.9791
1005.144, 124.6896
1005.627, 132.2087
1006.109, 139.2852
1006.591, 145.1630
1007.073, 150.1203
1007.555, 153.5999
1008.037, 156.9404
1008.519, 161.7350
1009.001, 167.0933
1009.483, 171.4988
1009.966, 174.9480
1010.448, 178.4323
1010.930, 182.4043
1011.412, 186.0264
1011.894, 188.2470
1012.376, 189.7711
1012.858, 191.7493
1013.340, 193.6735
1013.823, 195.1459
1014.305, 195.7751
1014.787, 193.8789
1015.269, 188.3997
1015.751, 181.6324
1016.233, 176.8716
1016.715, 173.0328
1017.197, 167.3070
1017.679, 159.7208
1018.162, 150.6399
1018.644, 140.5233
1019.126, 131.1970
1019.608, 123.6987
1020.090, 116.7496
1020.572, 108.5455
1021.054, 99.43011
1021.536, 89.44348
1022.018, 78.76294
1022.501, 72.35303
1022.983, 71.45007
1023.465, 70.69318
1023.947, 66.18048
1024.429, 60.04901
1024.911, 57.13824
1025.393, 57.54175
1025.875, 56.36029
1026.358, 53.48865
1026.840, 49.46686
1027.322, 43.93311
1027.804, 39.58112
1028.286, 38.57159
1028.768, 40.09314
1029.250, 42.27277
1029.732, 45.21051
1030.214, 48.21851
1030.697, 51.86810
1031.179, 53.37085
1031.661, 51.32483
1032.143, 48.50562
1032.625, 47.06299
1033.107, 46.48346
1033.589, 45.21375
1034.071, 42.81348
1034.553, 41.79651
1035.036, 42.39148
1035.518, 43.60699
1036.000, 45.56720
1036.482, 47.70575
1036.964, 50.12567
1037.446, 52.17017
1037.928, 51.68396
1038.410, 47.63409
1038.893, 44.69104
1039.375, 43.09521
1039.857, 42.26672
1040.339, 43.67487
1040.821, 44.13611
1041.303, 39.81067
1041.785, 32.86261
1042.267, 29.80133
1042.750, 32.21991
1043.232, 33.21783
1043.714, 30.68134
1044.196, 29.44537
1044.678, 32.56927
1045.160, 35.55560
1045.642, 34.62939
1046.124, 31.12421
1046.606, 28.02289
1047.089, 25.00513
1047.571, 24.59015
1048.053, 29.53210
1048.535, 33.71954
1049.017, 35.27887
1049.499, 35.71564
1049.981, 35.96320
1050.463, 36.05206
1050.945, 35.99432
1051.428, 35.89935
1051.910, 34.97351
1052.392, 30.96411
1052.874, 28.93427
1053.356, 32.91040
1053.838, 37.20471
1054.320, 37.29419
1054.802, 34.43152
1055.285, 31.57367
1055.767, 29.19983
1056.249, 26.47174
1056.731, 21.82788
1057.213, 18.57819
1057.695, 19.28381
1058.177, 20.76025
1058.659, 20.91998
1059.141, 19.67523
1059.624, 16.87512
1060.106, 12.51471
1060.588, 8.852051
1061.070, 6.533997
1061.552, 5.149841
1062.034, 5.399414
1062.516, 5.791199
1062.998, 4.722412
1063.480, 3.097107
1063.963, 2.589417
1064.445, 3.406189
1064.927, 3.959656
1065.409, 3.508911
1065.891, 2.784851
1066.373, 1.814392
1066.855, 0.8563840
1067.337, 4.3517999E-02
1067.820, 0.7905270
1068.302, 1.257690
1068.784, 1.441589
1069.266, 1.749573
1069.748, 2.856689
1070.230, 3.195313
1070.712, 3.038434
1071.194, 0.9342650
1071.677, 1.927612
1072.159, 1.809082
1072.641, 0.3273930
1073.123, 2.183716
1073.605, 3.988281
1074.087, 4.420959
1074.569, 4.019836
1075.051, 1.619385
1075.533, 4.3823000E-02
1076.016, 2.392395
1076.498, 5.858032
1076.980, 5.741272
1077.462, 2.525452
1077.944, 0.5216060
1078.426, 1.412964
1078.908, 2.692505
1079.390, 4.028809
1079.873, 4.441284
1080.355, 2.631775
1080.837, 4.098013
1081.319, 2.375122
1081.801, 4.024475
1082.283, 4.042053
1082.765, 1.799255
1083.247, 0.2861330
1083.729, 1.066833
1084.212, 2.708984
1084.694, 5.573425
1085.176, 7.919617
1085.658, 7.630920
1086.140, 5.455383
1086.622, 3.232788
1087.104, 1.354492
1087.586, 0.5106810
1088.068, 1.305176
1088.551, 2.801819
1089.033, 5.571106
1089.515, 7.901917
1089.997, 8.297791
1090.479, 7.140076
1090.961, 4.824524
1091.443, 1.579895
1091.925, 0.3530880
1092.408, 0.1019290
1092.890, 1.578247
1093.372, 6.027466
1093.854, 10.11432
1094.336, 11.94202
1094.818, 11.73560
1095.300, 9.213074
1095.782, 4.912720
1096.265, 2.244873
1096.747, 3.161194
1097.229, 3.921082
1097.711, 2.566284
1098.193, 1.506409
1098.675, 2.978638
1099.157, 4.941345
1099.639, 4.650635
1100.121, 2.505493
1100.604, 1.074951
1101.086, 0.7995000
1101.568, 1.546204
1102.050, 3.860229
1102.532, 6.462830
1103.014, 10.36322
1103.496, 12.96497
1103.978, 10.64294
1104.460, 5.379395
1104.943, 2.476196
1105.425, 2.931213
1105.907, 4.160034
1106.389, 6.146423
1106.871, 8.228455
1107.353, 10.47205
1107.835, 12.49316
1108.317, 13.74701
1108.800, 14.72101
1109.282, 16.84167
1109.764, 20.33398
1110.246, 20.94452
1110.728, 15.41602
1111.210, 11.27496
1111.692, 10.85126
1112.174, 10.50049
1112.656, 7.965393
1113.139, 4.868042
1113.621, 3.474792
1114.103, 3.595520
1114.585, 2.821289
1115.067, 0.4586790
1115.549, 1.739990
1116.031, 5.6580000E-02
1116.513, 2.366455
1116.995, 5.346191
1117.478, 7.536316
1117.960, 7.388123
1118.442, 5.465576
1118.924, 3.388916
1119.406, 0.6126710
1119.888, 1.6295999E-02
1120.370, 3.226746
1120.852, 5.224487
1121.335, 4.813416
1121.817, 3.069153
1122.299, 0.2188110
1122.781, 3.359375
1123.263, 2.833801
1123.745, 1.473877
1124.227, 3.171570
1124.709, 1.219604
1125.192, 0.4047240
1125.674, 1.582458
1126.156, 3.115479
1126.638, 4.338989
1127.120, 5.182495
1127.602, 5.474670
1128.084, 5.312988
1128.566, 5.135315
1129.048, 4.900024
1129.531, 3.937012
1130.013, 1.917542
1130.495, 1.763489
1130.977, 4.662903
1131.459, 7.202911
1131.941, 6.405792
1132.423, 3.908447
1132.905, 3.212067
1133.387, 4.098114
1133.870, 3.612366
1134.352, 1.750488
1134.834, 1.246796
1135.316, 2.766449
1135.798, 4.873840
1136.280, 6.687592
1136.762, 8.063934
1137.244, 8.888611
1137.727, 9.170563
1138.209, 8.398285
1138.691, 7.124298
1139.173, 8.058350
1139.655, 10.86368
1140.137, 11.40283
1140.619, 8.483582
1141.101, 6.277710
1141.583, 8.576385
1142.066, 7.037354
1142.548, 11.43146
1143.030, 8.727905
1143.512, 9.104889
1143.994, 11.64151
1144.476, 13.26031
1144.958, 13.45129
1145.440, 13.18585
1145.922, 12.91797
1146.405, 13.02283
1146.887, 14.67783
1147.369, 16.10159
1147.851, 14.98804
1148.333, 12.48474
1148.815, 9.737366
1149.297, 7.322113
1149.779, 6.085052
1150.262, 6.292542
1150.744, 7.021667
1151.226, 8.295410
1151.708, 8.878571
1152.190, 6.792297
1152.672, 4.863892
1153.154, 6.051178
1153.636, 8.632324
1154.119, 10.29001
1154.601, 10.68356
1155.083, 9.955322
1155.565, 7.648193
1156.047, 5.984528
1156.529, 6.015747
1157.011, 6.443329
1157.493, 6.879730
1157.975, 7.309967
1158.458, 7.785126
1158.940, 8.232727
1159.422, 8.647949
1159.904, 9.063446
1160.386, 8.741638
1160.868, 6.781219
1161.350, 5.430115
1161.832, 5.155518
1162.314, 5.219818
1162.797, 5.399506
1163.279, 5.820526
1163.761, 7.106323
1164.243, 8.701996
1164.725, 7.680145
1165.207, 7.527161
1165.689, 7.717438
1166.171, 4.524445
1166.654, 6.473267
1167.136, 4.119965
1167.618, 1.539276
1168.100, 1.317871
1168.582, 2.732330
1169.064, 4.822784
1169.546, 7.390533
1170.028, 8.484863
1170.510, 8.076874
1170.993, 7.095062
1171.475, 5.615906
1171.957, 4.972626
1172.439, 5.693390
1172.921, 6.181580
1173.403, 5.122498
1173.885, 3.344574
1174.367, 1.715027
1174.849, 0.4724430
1175.332, 0.9541930
1175.814, 2.784576
1176.296, 4.663269
1176.778, 6.173767
1177.260, 6.698547
1177.742, 6.020355
1178.224, 5.356964
1178.706, 5.428009
1179.189, 6.240845
1179.671, 8.730804
1180.153, 11.22421
1180.635, 11.15271
1181.117, 9.327911
1181.599, 7.549316
1182.081, 6.050354
1182.563, 4.109619
1183.046, 1.012665
1183.528, 0.7005920
1184.010, 1.094208
1184.492, 3.898590
1184.974, 6.680542
1185.456, 9.042511
1185.938, 11.24222
1186.420, 12.60049
1186.902, 11.24985
1187.385, 6.741577
1187.867, 2.933624
1188.349, 0.6660770
1188.831, 1.549957
1189.313, 3.252167
1189.795, 7.778259
1190.277, 8.690796
1190.759, 8.349945
1191.241, 9.385010
1191.724, 11.12524
1192.206, 10.83792
1192.688, 7.956512
1193.170, 5.342041
1193.652, 2.527710
1194.134, 1.617004
1194.616, 3.583252
1195.098, 5.666077
1195.581, 6.333618
1196.063, 6.443817
1196.545, 7.039795
1197.027, 7.620605
1197.509, 6.279510
1197.991, 3.229065
1198.473, 1.796387
1198.955, 2.094574
1199.438, 2.899445
1199.920, 3.708527
1200.402, 3.827209
1200.884, 2.682037
1201.366, 1.497528
1201.848, 2.141632
1202.330, 3.704559
1202.812, 4.618469
1203.294, 5.038269
1203.776, 5.224213
1204.259, 5.249237
1204.741, 4.930298
1205.223, 4.379974
1205.705, 4.865021
1206.187, 7.961212
1206.669, 10.02475
1207.151, 6.944916
1207.633, 3.575989
1208.116, 4.184113
1208.598, 6.320221
1209.080, 7.245758
1209.562, 6.987579
1210.044, 6.384186
1210.526, 5.542908
1211.008, 4.880096
1211.490, 4.380493
1211.973, 4.187103
1212.455, 4.954926
1212.937, 5.201294
1213.419, 3.356354
1213.901, 1.698944
1214.383, 3.055481
1214.865, 6.247406
1215.347, 7.060394
1215.829, 5.179169
1216.312, 3.056702
1216.794, 0.3348690
1217.276, 0.3427120
1217.758, 1.911133
1218.240, 3.163910
1218.722, 1.240479
1219.204, 0.4316410
1219.686, 2.285767
1220.168, 7.124939
1220.651, 7.938690
1221.133, 5.749390
1221.615, 4.420502
1222.097, 4.022369
1222.579, 4.081940
1223.061, 4.419525
1223.543, 4.697937
1224.025, 4.756561
1224.508, 5.177887
1224.990, 7.247589
1225.472, 8.938171
1225.954, 7.490906
1226.436, 5.195892
1226.918, 4.962830
1227.400, 5.631531
1227.882, 4.603790
1228.365, 2.096161
1228.847, 0.9530640
1229.329, 2.439728
1229.811, 3.160370
1230.293, 1.198456
1230.775, 0.3540040
1231.257, 0.2005310
1231.739, 0.4486390
1232.221, 1.223083
1232.703, 1.746399
1233.186, 1.162354
1233.668, 0.1571960
1234.150, 0.4722290
1234.632, 0.8116460
1235.114, 1.148254
1235.596, 3.458740
1236.078, 3.138428
1236.560, 5.711975
1237.043, 7.291718
1237.525, 5.361359
1238.007, 2.434570
1238.489, 1.382721
1238.971, 1.310028
1239.453, 1.019470
1239.935, 0.3619380
1240.417, 0.3468630
1240.900, 0.2262570
1241.382, 2.883026
1241.864, 3.610840
1242.346, 4.041931
1242.828, 4.980927
1243.310, 5.646515
1243.792, 5.100800
1244.274, 4.399872
1244.756, 4.584961
1245.239, 4.816864
1245.721, 4.060883
1246.203, 2.923065
1246.685, 2.455719
1247.167, 2.625610
1247.649, 2.610779
1248.131, 2.191315
1248.613, 1.849274
1249.095, 1.041565
1249.578, 1.311707
1250.060, 3.994934
1250.542, 6.069305
1251.024, 5.829071
1251.506, 4.501556
1251.988, 3.539154
1252.470, 2.798828
1252.952, 1.102753
1253.435, 1.539551
1253.917, 1.834229
1254.399, 0.1817320
1254.881, 2.423462
1255.363, 4.374969
1255.845, 4.343048
1256.327, 1.625549
1256.809, 0.2431950
1257.292, 2.704865
1257.774, 6.797791
1258.256, 6.782898
1258.738, 4.844330
1259.220, 3.324158
1259.702, 2.957092
1260.184, 6.053101
1260.666, 11.04630
1261.148, 12.17081
1261.630, 7.808533
1262.113, 4.694763
1262.595, 6.763214
1263.077, 7.942780
1263.559, 6.243683
1264.041, 4.513031
1264.523, 4.114288
1265.005, 4.339752
1265.487, 4.744476
1265.970, 5.176300
1266.452, 5.250641
1266.934, 4.961029
1267.416, 4.820465
1267.898, 4.802979
1268.380, 5.203491
1268.862, 6.076660
1269.344, 6.070770
1269.827, 4.291931
1270.309, 2.671783
1270.791, 3.153595
1271.273, 3.864136
1271.755, 2.052765
1272.237, 6.9214001E-02
1272.719, 1.761841
1273.201, 0.8588560
1273.683, 1.492247
1274.166, 2.776276
1274.648, 2.919281
1275.130, 5.589752
1275.612, 6.247009
1276.094, 2.495361
1276.576, 0.2294620
1277.058, 1.236847
1277.540, 2.734192
1278.022, 2.262634
1278.505, 1.800018
1278.987, 2.876587
1279.469, 4.215729
1279.951, 5.138641
1280.433, 5.463379
1280.915, 4.798859
1281.397, 2.467438
1281.879, 2.655304
1282.362, 5.364532
1282.844, 5.520935
1283.326, 2.260925
1283.808, 1.6510000E-02
1284.290, 0.5126950
1284.772, 1.695618
1285.254, 1.517761
1285.736, 0.0000000E+00
##END=



