##NAMES=Gillardite
##RRUFFID=R100074
##IDEAL CHEMISTRY=Cu^2+^_3_Ni^2+^Cl^1-^_2_(OH)_6_
##LOCALITY=132 North deposit, Widgiemooltha, Western Australia, Australia
##OWNER=RRUFF
##SOURCE=Marcus Origlieri
##DESCRIPTION=Aggregates of dark green flat rhombohedra, associated with colorless gypsum and yellowish-green massive gaspeite
##STATUS=The identification of this mineral has been confirmed by single-crystal X-ray diffraction.
##URL=rruff.info/R100074
90.26532, 0.0000000E+00
90.74744, 4.7180001E-02
91.22955, 5.230652
91.71167, 12.28323
92.19379, 17.19461
92.67590, 21.23083
93.15802, 22.31799
93.64014, 18.96649
94.12225, 15.45932
94.60437, 17.04849
95.08649, 17.88455
95.56860, 18.81754
96.05072, 16.85086
96.53284, 12.16415
97.01495, 6.899445
97.49707, 2.623749
97.97919, 0.7265930
98.46130, 2.736481
98.94342, 3.099670
99.42554, 1.941406
99.90765, 0.5341800
100.3898, 1.247162
100.8719, 3.069275
101.3540, 4.199005
101.8361, 4.237122
102.3182, 5.055481
102.8004, 7.206726
103.2825, 10.47073
103.7646, 15.43130
104.2467, 21.55148
104.7288, 29.41302
105.2109, 40.33606
105.6931, 53.92368
106.1752, 70.86087
106.6573, 91.90277
107.1394, 119.7766
107.6215, 146.7527
108.1036, 173.6781
108.5858, 200.0146
109.0679, 222.2484
109.5500, 238.6383
110.0321, 252.5565
110.5142, 265.7018
110.9963, 276.7533
111.4785, 288.6200
111.9606, 301.6407
112.4427, 315.7982
112.9248, 330.4697
113.4069, 345.9353
113.8890, 361.6563
114.3712, 377.3981
114.8533, 391.1069
115.3354, 406.5198
115.8175, 425.3484
116.2996, 448.1802
116.7817, 471.0764
117.2639, 491.0542
117.7460, 510.8997
118.2281, 534.1473
118.7102, 561.3280
119.1923, 592.8198
119.6744, 627.4683
120.1566, 664.1106
120.6387, 708.9468
121.1208, 763.3040
121.6029, 828.2122
122.0850, 905.5006
122.5671, 994.3045
123.0493, 1096.712
123.5314, 1216.206
124.0135, 1355.784
124.4956, 1507.089
124.9777, 1678.916
125.4598, 1861.383
125.9420, 2013.815
126.4241, 2136.086
126.9062, 2207.307
127.3883, 2182.179
127.8704, 2029.753
128.3525, 1805.502
128.8347, 1571.442
129.3168, 1328.262
129.7989, 1106.609
130.2810, 927.6731
130.7631, 789.5010
131.2452, 678.0942
131.7274, 594.5750
132.2095, 533.5771
132.6916, 482.3117
133.1737, 440.7211
133.6558, 407.4173
134.1379, 381.6665
134.6201, 363.3897
135.1022, 347.1681
135.5843, 331.5657
136.0664, 316.7181
136.5485, 304.2932
137.0306, 294.3767
137.5128, 286.5870
137.9949, 280.1956
138.4770, 275.1452
138.9591, 271.7604
139.4412, 270.6278
139.9233, 271.9872
140.4055, 272.2297
140.8876, 270.9634
141.3697, 268.9488
141.8518, 267.2573
142.3339, 265.5856
142.8160, 264.8876
143.2982, 265.3279
143.7803, 266.5035
144.2624, 270.1527
144.7445, 276.6385
145.2266, 285.5317
145.7087, 295.3495
146.1909, 305.2037
146.6730, 317.2967
147.1551, 332.6927
147.6372, 352.0764
148.1193, 373.1992
148.6014, 396.5115
149.0836, 421.7548
149.5657, 449.2198
150.0478, 483.9975
150.5299, 516.2982
151.0120, 542.0303
151.4941, 578.2969
151.9763, 587.7912
152.4584, 561.7241
152.9405, 505.0537
153.4226, 442.9841
153.9047, 365.0850
154.3868, 290.2096
154.8690, 228.6246
155.3511, 186.4422
155.8332, 152.1663
156.3153, 126.0698
156.7974, 107.7210
157.2795, 93.09329
157.7617, 82.59265
158.2438, 74.74686
158.7259, 68.52682
159.2080, 64.61139
159.6901, 61.44095
160.1722, 58.73193
160.6544, 56.46176
161.1365, 54.34650
161.6186, 51.97580
162.1007, 49.85324
162.5828, 48.38962
163.0649, 48.59790
163.5471, 48.77649
164.0292, 48.06384
164.5113, 46.42453
164.9934, 44.63586
165.4755, 42.86203
165.9576, 41.20273
166.4398, 39.80362
166.9219, 38.94141
167.4040, 38.17459
167.8861, 37.14001
168.3682, 35.79257
168.8503, 34.61060
169.3325, 33.91617
169.8146, 33.59055
170.2967, 33.44745
170.7788, 33.87839
171.2609, 34.19470
171.7430, 33.63779
172.2252, 32.08615
172.7073, 30.36795
173.1894, 29.02792
173.6715, 28.00323
174.1536, 27.19186
174.6357, 26.71487
175.1179, 26.33206
175.6000, 25.72464
176.0821, 24.84537
176.5642, 23.89584
177.0463, 23.05322
177.5284, 22.29535
178.0106, 21.56995
178.4927, 20.80014
178.9748, 20.05292
179.4569, 19.52914
179.9390, 19.31091
180.4211, 19.06552
180.9033, 18.25681
181.3854, 17.00391
181.8675, 15.88803
182.3496, 15.26260
182.8317, 15.01825
183.3138, 14.90234
183.7960, 14.93573
184.2781, 14.96478
184.7602, 14.61746
185.2423, 13.95566
185.7244, 13.54904
186.2065, 14.16992
186.6887, 15.41293
187.1708, 15.62253
187.6529, 14.37204
188.1350, 12.54428
188.6171, 11.67389
189.0992, 11.73221
189.5814, 12.01797
190.0635, 12.09320
190.5456, 11.99902
191.0277, 12.08951
191.5098, 12.54099
191.9919, 12.98895
192.4741, 12.53082
192.9562, 11.14209
193.4383, 9.720581
193.9204, 8.783112
194.4025, 8.305573
194.8846, 8.255096
195.3668, 8.823517
195.8489, 9.665375
196.3310, 9.837402
196.8131, 9.257629
197.2952, 8.543274
197.7773, 8.129517
198.2595, 8.040894
198.7416, 7.829071
199.2237, 7.281097
199.7058, 6.647766
200.1879, 6.888123
200.6700, 8.217255
201.1522, 9.471222
201.6343, 9.761047
202.1164, 8.981110
202.5985, 8.223785
203.0806, 7.670166
203.5627, 7.308319
204.0449, 6.916351
204.5270, 6.371979
205.0091, 5.970459
205.4912, 6.128113
205.9733, 7.049377
206.4554, 7.439972
206.9376, 6.909637
207.4197, 5.780853
207.9018, 5.372162
208.3839, 5.908600
208.8660, 6.573486
209.3481, 6.816406
209.8303, 6.576416
210.3124, 6.373810
210.7945, 6.266968
211.2766, 6.166107
211.7587, 5.773041
212.2408, 4.936188
212.7230, 4.230804
213.2051, 4.044495
213.6872, 4.499481
214.1693, 5.064697
214.6514, 5.849670
215.1335, 6.693512
215.6157, 6.720459
216.0978, 5.473846
216.5799, 4.223297
217.0620, 3.856506
217.5441, 4.721893
218.0262, 5.444611
218.5084, 5.882538
218.9905, 6.074677
219.4726, 6.224121
219.9547, 6.339111
220.4368, 6.402679
220.9189, 6.405365
221.4011, 6.333466
221.8832, 6.231140
222.3653, 5.992279
222.8474, 5.729523
223.3295, 6.004333
223.8116, 7.199371
224.2938, 8.337891
224.7759, 8.779968
225.2580, 8.193390
225.7401, 7.704041
226.2222, 7.398926
226.7043, 7.244476
227.1865, 7.080505
227.6686, 6.905182
228.1507, 6.731079
228.6328, 6.591705
229.1149, 6.572540
229.5970, 6.380341
230.0792, 5.940826
230.5613, 5.318604
231.0434, 4.787201
231.5255, 4.386078
232.0076, 4.048248
232.4897, 3.730286
232.9719, 3.342651
233.4540, 3.222748
233.9361, 3.566162
234.4182, 4.177979
234.9003, 4.325623
235.3824, 3.696625
235.8646, 3.050537
236.3467, 2.813751
236.8288, 3.358063
237.3109, 3.438141
237.7930, 2.694031
238.2751, 1.503815
238.7573, 1.127655
239.2394, 2.105225
239.7215, 3.089539
240.2036, 3.455200
240.6857, 2.898804
241.1678, 2.374512
241.6500, 1.775391
242.1321, 1.242859
242.6142, 1.180603
243.0963, 1.947021
243.5784, 2.687592
244.0605, 3.004242
244.5427, 2.724243
245.0248, 2.395935
245.5069, 2.036224
245.9890, 1.650177
246.4711, 1.228821
246.9532, 0.6827090
247.4354, 0.2638850
247.9175, 0.1297910
248.3996, 0.4286190
248.8817, 0.5167240
249.3638, 0.3303220
249.8459, 7.9010002E-02
250.3281, 0.6483460
250.8102, 1.562988
251.2923, 2.243774
251.7744, 2.418213
252.2565, 1.861359
252.7386, 1.756165
253.2208, 2.280457
253.7029, 3.082916
254.1850, 3.646515
254.6671, 3.880463
255.1492, 4.124939
255.6313, 4.552307
256.1135, 5.252563
256.5956, 5.517609
257.0777, 5.216248
257.5598, 4.610504
258.0419, 4.038940
258.5240, 3.540771
259.0062, 2.991669
259.4883, 2.254639
259.9704, 1.272797
260.4525, 1.026825
260.9346, 1.844666
261.4167, 2.890717
261.8989, 3.161346
262.3810, 2.322479
262.8631, 1.659760
263.3452, 1.526886
263.8273, 1.916718
264.3094, 2.075989
264.7916, 1.944916
265.2737, 1.650055
265.7558, 1.276123
266.2379, 0.7345280
266.7200, 0.4583440
267.2021, 0.6496280
267.6843, 1.218628
268.1664, 1.185028
268.6485, 0.3576660
269.1306, 0.6309510
269.6127, 1.196564
270.0948, 1.224060
270.5770, 1.331390
271.0591, 1.605591
271.5412, 2.024261
272.0233, 2.510254
272.5054, 3.124542
272.9875, 3.637634
273.4697, 3.783173
273.9518, 3.465851
274.4339, 3.425323
274.9160, 3.811554
275.3981, 4.496887
275.8802, 5.100739
276.3624, 5.601776
276.8445, 6.104950
277.3266, 6.786682
277.8087, 7.689941
278.2908, 8.085846
278.7729, 7.748383
279.2551, 7.074524
279.7372, 7.090912
280.2193, 7.920013
280.7014, 8.644714
281.1835, 8.758636
281.6656, 8.268860
282.1478, 7.497131
282.6299, 6.270477
283.1120, 5.140717
283.5941, 5.279755
284.0762, 6.757080
284.5583, 8.099426
285.0405, 8.545715
285.5226, 8.193329
286.0047, 7.924835
286.4868, 7.746399
286.9689, 7.644958
287.4510, 7.726501
287.9332, 7.968140
288.4153, 7.905090
288.8974, 7.051910
289.3795, 5.733490
289.8616, 5.360687
290.3438, 6.033417
290.8259, 6.953491
291.3080, 7.299011
291.7901, 7.127014
292.2722, 6.769043
292.7543, 6.267792
293.2365, 5.686188
293.7186, 5.155640
294.2007, 4.683075
294.6828, 4.288483
295.1649, 3.981354
295.6470, 3.770905
296.1292, 3.678772
296.6113, 3.766235
297.0934, 3.921906
297.5755, 3.991760
298.0576, 3.974457
298.5397, 3.868927
299.0219, 3.667603
299.5040, 3.375153
299.9861, 2.954041
300.4682, 2.289795
300.9503, 1.726349
301.4324, 1.799194
301.9146, 2.384094
302.3967, 2.940125
302.8788, 3.155731
303.3609, 3.130280
303.8430, 2.972046
304.3251, 2.665131
304.8073, 2.343475
305.2894, 1.952454
305.7715, 1.620819
306.2536, 1.650665
306.7357, 2.647339
307.2178, 3.844971
307.7000, 4.364502
308.1821, 4.066071
308.6642, 3.628052
309.1463, 3.658112
309.6284, 3.886292
310.1105, 3.892029
310.5927, 3.147919
311.0748, 2.300964
311.5569, 1.831604
312.0390, 1.759735
312.5211, 1.750397
313.0032, 1.659973
313.4854, 1.499420
313.9675, 1.279968
314.4496, 1.024994
314.9317, 0.7800290
315.4138, 0.5330200
315.8959, 0.3037410
316.3781, 0.1922610
316.8602, 0.5166020
317.3423, 0.8399960
317.8244, 0.8167720
318.3065, 2.8534001E-02
318.7886, 0.7897950
319.2708, 1.106995
319.7529, 1.067993
320.2350, 0.9694820
320.7171, 0.8604130
321.1992, 0.8058780
321.6813, 0.8862000
322.1635, 1.223755
322.6456, 1.392975
323.1277, 1.146637
323.6098, 0.7009280
324.0919, 0.4122620
324.5740, 0.6994630
325.0562, 0.8759460
325.5383, 0.6462710
326.0204, 0.2234800
326.5025, 0.8019410
326.9846, 0.7021480
327.4667, 0.3971250
327.9489, 0.4003600
328.4310, 1.266205
328.9131, 1.840790
329.3952, 1.770813
329.8773, 1.026581
330.3594, 0.7696530
330.8416, 1.376129
331.3237, 2.157593
331.8058, 2.618195
332.2879, 2.518616
332.7700, 2.494812
333.2521, 2.568695
333.7343, 2.750458
334.2164, 3.131195
334.6985, 3.855713
335.1806, 4.541534
335.6627, 4.965637
336.1448, 5.028717
336.6270, 5.076538
337.1091, 4.973969
337.5912, 4.968750
338.0733, 5.770752
338.5554, 7.749084
339.0375, 9.319641
339.5197, 9.663330
340.0018, 8.691650
340.4839, 8.168976
340.9660, 8.201355
341.4481, 8.476379
341.9302, 8.597107
342.4124, 8.546844
342.8945, 8.554199
343.3766, 8.740753
343.8587, 9.035156
344.3408, 9.044128
344.8229, 8.721893
345.3051, 8.425232
345.7872, 8.539795
346.2693, 9.003723
346.7514, 9.390076
347.2335, 9.563446
347.7156, 9.680176
348.1978, 10.06653
348.6799, 10.70868
349.1620, 11.40311
349.6441, 11.76697
350.1262, 12.10080
350.6083, 13.21552
351.0905, 15.34814
351.5726, 17.79651
352.0547, 19.69714
352.5368, 21.22495
353.0189, 22.91937
353.5010, 25.08191
353.9832, 27.54810
354.4653, 30.17078
354.9474, 32.97089
355.4295, 35.77271
355.9116, 38.16006
356.3937, 40.53070
356.8759, 43.44736
357.3580, 47.62759
357.8401, 52.01404
358.3222, 55.66852
358.8043, 58.78061
359.2864, 62.32336
359.7686, 67.06516
360.2507, 72.37115
360.7328, 77.61716
361.2149, 82.51953
361.6970, 87.63620
362.1791, 92.87369
362.6613, 98.46759
363.1434, 104.9623
363.6255, 112.8080
364.1076, 121.3833
364.5897, 130.4963
365.0718, 139.8960
365.5540, 149.9493
366.0361, 161.0285
366.5182, 172.6529
367.0003, 184.2653
367.4824, 196.1323
367.9645, 207.6526
368.4467, 219.0617
368.9288, 230.2273
369.4109, 239.9662
369.8930, 249.0694
370.3751, 256.1932
370.8572, 260.5545
371.3394, 262.9105
371.8215, 261.1354
372.3036, 254.4197
372.7857, 243.4495
373.2678, 230.5448
373.7499, 215.3535
374.2321, 198.6208
374.7142, 180.3862
375.1963, 159.7385
375.6784, 140.8637
376.1605, 123.9035
376.6426, 108.5846
377.1248, 95.14441
377.6069, 83.52463
378.0890, 73.37100
378.5711, 64.77271
379.0532, 57.59338
379.5353, 51.51740
380.0175, 46.53680
380.4996, 42.35184
380.9817, 38.62656
381.4638, 35.42664
381.9459, 33.10867
382.4280, 31.84073
382.9102, 31.32883
383.3923, 31.07907
383.8744, 31.12161
384.3565, 31.57834
384.8386, 32.56750
385.3207, 34.01089
385.8029, 35.61707
386.2850, 37.29456
386.7671, 39.61938
387.2492, 43.37314
387.7313, 48.24310
388.2134, 53.48685
388.6956, 58.41046
389.1777, 63.73276
389.6598, 70.24899
390.1419, 77.90158
390.6240, 86.03726
391.1061, 94.35223
391.5883, 102.9933
392.0704, 112.1296
392.5525, 121.6404
393.0346, 131.9373
393.5167, 143.7823
393.9988, 156.6875
394.4810, 169.4756
394.9631, 180.9554
395.4452, 192.8341
395.9273, 206.0770
396.4094, 221.1352
396.8915, 236.5843
397.3737, 251.4541
397.8558, 266.7326
398.3379, 283.6638
398.8200, 303.2551
399.3021, 323.5663
399.7842, 343.9659
400.2664, 364.4582
400.7485, 386.9181
401.2306, 411.5425
401.7127, 437.6372
402.1948, 464.7460
402.6769, 492.9588
403.1591, 522.0348
403.6412, 552.4592
404.1233, 583.4302
404.6054, 614.2636
405.0875, 645.4031
405.5696, 674.2486
406.0518, 700.1046
406.5339, 723.0221
407.0160, 741.8710
407.4981, 756.9951
407.9802, 766.6751
408.4623, 768.9193
408.9445, 763.7218
409.4266, 751.7457
409.9087, 732.9622
410.3908, 707.8425
410.8729, 676.0276
411.3550, 637.5280
411.8372, 597.5153
412.3193, 558.3354
412.8014, 520.1152
413.2835, 482.6516
413.7656, 445.4594
414.2477, 409.7498
414.7299, 377.1626
415.2120, 347.1914
415.6941, 319.5558
416.1762, 293.9964
416.6583, 270.3808
417.1404, 248.4784
417.6226, 228.1100
418.1047, 209.8887
418.5868, 194.5238
419.0689, 181.1259
419.5510, 168.6319
420.0331, 157.1341
420.5153, 146.1575
420.9974, 135.8326
421.4795, 126.0019
421.9616, 116.6911
422.4437, 107.5755
422.9258, 99.14856
423.4080, 91.72037
423.8901, 85.43918
424.3722, 79.43774
424.8543, 73.50998
425.3364, 67.91193
425.8185, 62.92355
426.3007, 58.59076
426.7828, 54.73935
427.2649, 51.47415
427.7470, 48.72272
428.2291, 45.88699
428.7112, 42.86908
429.1934, 39.96738
429.6755, 37.28601
430.1576, 34.85580
430.6397, 32.55927
431.1218, 30.41263
431.6039, 28.37030
432.0861, 26.26205
432.5682, 24.06778
433.0503, 22.17932
433.5324, 20.85107
434.0145, 19.89621
434.4966, 18.63202
434.9788, 17.05292
435.4609, 15.43777
435.9430, 13.87045
436.4251, 12.43155
436.9072, 11.43546
437.3893, 11.08868
437.8715, 10.78879
438.3536, 9.693390
438.8357, 8.060364
439.3178, 6.609009
439.7999, 5.647308
440.2820, 5.064728
440.7642, 4.959290
441.2463, 5.328156
441.7284, 5.456696
442.2105, 4.705933
442.6926, 3.631104
443.1747, 2.771484
443.6569, 2.518188
444.1390, 2.191376
444.6211, 1.481415
445.1032, 0.5241390
445.5853, 0.2562560
446.0674, 0.7547610
446.5496, 1.090057
447.0317, 1.266113
447.5138, 1.206818
447.9959, 1.219727
448.4780, 1.202148
448.9601, 1.314301
449.4423, 1.781036
449.9244, 2.938507
450.4065, 3.709412
450.8886, 3.852081
451.3707, 3.489166
451.8528, 3.081482
452.3350, 2.536621
452.8171, 2.241455
453.2992, 2.622650
453.7813, 3.703003
454.2634, 4.110046
454.7455, 3.747955
455.2277, 2.968964
455.7098, 2.110535
456.1919, 1.199463
456.6740, 0.3624270
457.1561, 0.3088990
457.6382, 0.9098510
458.1204, 1.573761
458.6025, 2.305084
459.0846, 3.094147
459.5667, 3.823761
460.0488, 4.663879
460.5309, 5.868744
461.0131, 7.511597
461.4952, 9.335663
461.9773, 11.21564
462.4594, 13.13116
462.9415, 15.07510
463.4236, 17.32928
463.9058, 19.31833
464.3879, 20.57098
464.8700, 21.18079
465.3521, 22.16492
465.8342, 24.06223
466.3163, 26.19547
466.7985, 28.17984
467.2806, 29.75815
467.7627, 31.59457
468.2448, 33.67554
468.7269, 36.01294
469.2090, 38.69519
469.6912, 42.06702
470.1733, 45.18750
470.6554, 47.74417
471.1375, 49.81656
471.6196, 52.21609
472.1017, 55.04523
472.5839, 57.91711
473.0660, 60.65607
473.5481, 63.25153
474.0302, 65.65512
474.5123, 67.81235
474.9944, 69.92609
475.4766, 72.67938
475.9587, 75.85928
476.4408, 78.04852
476.9229, 78.12363
477.4050, 77.19748
477.8871, 77.24496
478.3693, 78.14130
478.8514, 78.72626
479.3335, 78.10590
479.8156, 76.74106
480.2977, 75.07599
480.7798, 73.05289
481.2620, 71.22391
481.7441, 69.98077
482.2262, 69.11780
482.7083, 68.33243
483.1904, 67.03613
483.6725, 66.26068
484.1547, 66.45786
484.6368, 67.59210
485.1189, 69.09579
485.6010, 70.72586
486.0831, 72.85336
486.5652, 75.60559
487.0474, 78.92740
487.5295, 83.02780
488.0116, 87.89413
488.4937, 93.50085
488.9758, 99.97525
489.4579, 107.5969
489.9401, 115.2597
490.4222, 122.6211
490.9043, 129.8474
491.3864, 138.1278
491.8685, 147.5957
492.3506, 157.4314
492.8328, 166.9201
493.3149, 176.2332
493.7970, 186.3326
494.2791, 197.3176
494.7612, 209.1371
495.2433, 221.9868
495.7255, 235.7630
496.2076, 250.2927
496.6897, 265.1139
497.1718, 281.0789
497.6539, 299.0837
498.1360, 318.7253
498.6182, 339.0268
499.1003, 359.0438
499.5824, 379.7772
500.0645, 401.5982
500.5466, 425.1205
501.0287, 448.4115
501.5109, 471.6115
501.9930, 494.0985
502.4751, 514.9468
502.9572, 535.4499
503.4393, 552.4918
503.9214, 566.4253
504.4036, 576.5911
504.8857, 581.1008
505.3678, 579.7963
505.8499, 573.1740
506.3320, 561.0944
506.8141, 543.4170
507.2963, 522.1400
507.7784, 496.2686
508.2605, 468.5039
508.7426, 440.7035
509.2247, 412.9221
509.7068, 385.7009
510.1890, 359.0792
510.6711, 333.3914
511.1532, 309.5316
511.6353, 287.2289
512.1174, 266.4016
512.5995, 246.8322
513.0817, 228.7371
513.5638, 212.4922
514.0459, 198.0384
514.5280, 184.5616
515.0101, 171.4506
515.4922, 159.0202
515.9744, 147.7392
516.4565, 137.6146
516.9386, 128.6467
517.4207, 121.3096
517.9028, 115.0364
518.3849, 108.8985
518.8671, 102.4734
519.3492, 96.47919
519.8313, 91.01874
520.3134, 86.12064
520.7955, 81.46698
521.2776, 76.99475
521.7598, 72.84573
522.2419, 69.19922
522.7240, 66.12543
523.2061, 63.02954
523.6882, 59.83017
524.1703, 56.74384
524.6525, 54.07791
525.1346, 51.79962
525.6167, 49.61081
526.0988, 47.47150
526.5809, 45.37988
527.0630, 43.33765
527.5452, 41.35461
528.0273, 39.43533
528.5094, 37.58173
528.9915, 35.78137
529.4736, 33.91968
529.9557, 31.97122
530.4379, 30.27271
530.9200, 29.19437
531.4021, 28.35046
531.8842, 27.35516
532.3663, 26.03769
532.8484, 24.66727
533.3306, 23.21121
533.8127, 21.75424
534.2948, 20.52557
534.7769, 19.75018
535.2590, 18.94287
535.7411, 17.99155
536.2233, 16.90735
536.7054, 15.80997
537.1875, 14.68527
537.6696, 13.60669
538.1517, 12.52896
538.6339, 11.43216
539.1160, 10.88950
539.5981, 11.09326
540.0802, 11.41638
540.5623, 10.89072
541.0444, 9.672577
541.5266, 8.654388
542.0087, 8.244904
542.4908, 8.018829
542.9729, 7.263000
543.4550, 6.131805
543.9371, 5.215363
544.4193, 4.943970
544.9014, 4.952789
545.3835, 4.988007
545.8656, 5.030731
546.3477, 5.002441
546.8298, 4.877441
547.3120, 4.657654
547.7941, 4.343079
548.2762, 3.732941
548.7583, 3.298279
549.2404, 3.188324
549.7225, 3.236786
550.2047, 3.159943
550.6868, 2.885620
551.1689, 2.628845
551.6510, 2.486191
552.1331, 2.417252
552.6152, 2.131912
553.0974, 1.600204
553.5795, 1.019867
554.0616, 0.4180760
554.5437, 0.1492310
555.0258, 0.2751770
555.5079, 0.1221620
555.9901, 0.5562740
556.4722, 0.3700100
556.9543, 0.1409910
557.4364, 0.3203430
557.9185, 0.2631990
558.4006, 0.8384860
558.8828, 0.6446690
559.3649, 3.0944999E-02
559.8470, 0.5277860
560.3291, 0.5209050
560.8112, 0.3417360
561.2933, 4.6844002E-02
561.7755, 0.3548890
562.2576, 0.5363920
562.7397, 0.3385620
563.2218, 9.4450004E-03
563.7039, 0.4319610
564.1860, 1.042862
564.6682, 1.424927
565.1503, 1.533066
565.6324, 1.467270
566.1145, 1.256546
566.5966, 0.8481140
567.0787, 0.8325650
567.5609, 1.549377
568.0430, 2.451752
568.5251, 2.074371
569.0072, 0.5893710
569.4893, 0.5952910
569.9714, 0.4240110
570.4536, 0.3686980
570.9357, 0.8008120
571.4178, 0.8557130
571.8999, 0.6966090
572.3820, 0.2081300
572.8641, 0.3194270
573.3463, 0.6045230
573.8284, 0.5080720
574.3105, 0.4095000
574.7926, 0.4067990
575.2747, 0.4658360
575.7568, 0.5426330
576.2390, 0.4866640
576.7211, 0.6529080
577.2032, 1.222946
577.6853, 2.030609
578.1674, 2.473938
578.6495, 2.456848
579.1317, 2.373459
579.6138, 2.413208
580.0959, 2.540771
580.5780, 2.348068
581.0601, 1.783936
581.5422, 1.470245
582.0244, 2.272202
582.5065, 3.703888
582.9886, 4.462341
583.4707, 4.289932
583.9528, 3.952667
584.4349, 4.140030
584.9171, 4.607864
585.3992, 4.996887
585.8813, 5.224136
586.3634, 5.296646
586.8455, 5.012039
587.3276, 4.558655
587.8098, 4.456207
588.2919, 5.107773
588.7740, 5.821152
589.2561, 6.426514
589.7382, 6.925491
590.2203, 7.293808
590.7025, 7.464752
591.1846, 7.589798
591.6667, 7.782974
592.1488, 8.058624
592.6309, 8.293884
593.1130, 8.494385
593.5952, 8.641632
594.0773, 8.699295
594.5594, 8.678329
595.0415, 8.602386
595.5236, 8.403336
596.0057, 8.313400
596.4879, 8.705154
596.9700, 9.395111
597.4521, 9.976334
597.9342, 10.19011
598.4163, 10.32335
598.8984, 10.59026
599.3806, 10.95499
599.8627, 11.11530
600.3448, 10.76007
600.8269, 10.40114
601.3090, 10.24890
601.7911, 10.29547
602.2733, 10.58598
602.7554, 11.27184
603.2375, 12.01459
603.7196, 12.50029
604.2017, 12.70378
604.6838, 12.69275
605.1660, 12.40984
605.6481, 12.09688
606.1302, 12.24451
606.6123, 12.74678
607.0944, 13.07867
607.5765, 12.88028
608.0587, 12.55396
608.5408, 12.64496
609.0229, 13.04474
609.5050, 13.35435
609.9871, 13.38692
610.4692, 13.25516
610.9514, 12.93021
611.4335, 12.36861
611.9156, 11.97935
612.3977, 12.04294
612.8798, 12.14418
613.3619, 12.05209
613.8441, 11.60744
614.3262, 11.31474
614.8083, 11.23730
615.2904, 11.18799
615.7725, 10.95413
616.2546, 10.50903
616.7368, 10.02901
617.2189, 9.482330
617.7010, 8.895691
618.1831, 8.279495
618.6652, 7.743652
619.1473, 7.612839
619.6295, 8.521896
620.1116, 9.472122
620.5937, 9.344604
621.0758, 8.332733
621.5579, 7.422272
622.0400, 7.119186
622.5222, 7.133270
623.0043, 7.278214
623.4864, 7.513519
623.9685, 7.696838
624.4506, 8.046356
624.9327, 8.276657
625.4149, 8.086533
625.8970, 7.253342
626.3791, 6.555634
626.8612, 6.080978
627.3433, 5.829620
627.8254, 5.913040
628.3076, 6.266647
628.7897, 6.232803
629.2718, 5.524658
629.7539, 4.633896
630.2360, 4.335770
630.7181, 4.498383
631.2003, 4.704132
631.6824, 4.710190
632.1645, 4.656906
632.6466, 4.696945
633.1287, 4.818756
633.6108, 4.894257
634.0930, 4.716507
634.5751, 4.625320
635.0572, 4.933517
635.5393, 5.852875
636.0214, 5.984207
636.5035, 4.768982
636.9857, 3.442245
637.4678, 3.041702
637.9499, 3.736740
638.4320, 4.122833
638.9141, 4.075714
639.3962, 3.796051
639.8784, 3.364517
640.3605, 2.893829
640.8426, 2.828766
641.3247, 3.262848
641.8068, 4.202911
642.2889, 6.616882
642.7711, 9.535461
643.2532, 10.81174
643.7353, 7.676849
644.2174, 4.396866
644.6995, 3.115936
645.1816, 3.601654
645.6638, 3.883102
646.1459, 3.603256
646.6280, 3.128357
647.1101, 2.418854
647.5922, 1.427567
648.0743, 1.198288
648.5565, 1.944092
649.0386, 2.894867
649.5207, 3.551285
650.0028, 3.907654
650.4849, 3.785812
650.9670, 3.105331
651.4492, 2.400330
651.9313, 2.373154
652.4134, 2.708740
652.8955, 2.753860
653.3776, 2.117905
653.8597, 1.679825
654.3419, 2.518799
654.8240, 3.790253
655.3061, 4.183945
655.7882, 2.238663
656.2703, 0.6616820
656.7524, 0.2082520
657.2346, 0.5602110
657.7167, 0.7919770
658.1988, 0.8002620
658.6809, 0.9551240
659.1630, 1.543198
659.6451, 2.394775
660.1273, 2.313431
660.6094, 1.241730
661.0915, 0.2982030
661.5736, 0.4367680
662.0557, 1.159424
662.5378, 1.503586
663.0200, 1.417679
663.5021, 1.178238
663.9842, 0.7013400
664.4663, 0.3173520
664.9484, 0.4189150
665.4305, 1.316208
665.9127, 1.978561
666.3948, 2.153427
666.8769, 1.973068
667.3590, 1.541229
667.8411, 0.5258330
668.3232, 4.6390002E-03
668.8054, 0.1672210
669.2875, 0.7112880
669.7696, 1.102844
670.2517, 1.341278
670.7338, 1.432877
671.2159, 1.341629
671.6981, 1.147873
672.1802, 0.9953460
672.6623, 0.8625180
673.1444, 0.6710660
673.6265, 0.2160340
674.1086, 0.1774440
674.5908, 0.1494600
675.0729, 0.2210540
675.5550, 0.3930970
676.0371, 0.1985020
676.5192, 0.6572270
677.0013, 0.4522550
677.4835, 0.5247190
677.9656, 1.001724
678.4477, 0.8843840
678.9298, 0.4484250
679.4119, 0.3143310
679.8940, 1.417618
680.3762, 1.709091
680.8583, 1.049088
681.3404, 0.2767330
681.8225, 0.3854830
682.3046, 1.001770
682.7867, 1.324005
683.2689, 1.123474
683.7510, 0.8214110
684.2331, 0.7184600
684.7152, 0.6984410
685.1973, 0.6162260
685.6794, 0.5614930
686.1616, 0.2747500
686.6437, 0.7078860
687.1258, 1.844254
687.6079, 2.034363
688.0900, 0.7935790
688.5721, 0.1136320
689.0543, 0.1959230
689.5364, 0.2890010
690.0185, 0.6906590
690.5006, 1.000107
690.9827, 1.085815
691.4648, 0.6443480
691.9470, 5.5969000E-02
692.4291, 6.1569002E-02
692.9112, 0.2329860
693.3933, 0.6063080
693.8754, 0.9224700
694.3575, 1.216888
694.8397, 1.508118
695.3218, 1.804413
695.8039, 2.124435
696.2860, 2.625015
696.7681, 3.005615
697.2502, 3.075668
697.7324, 2.739304
698.2145, 2.573441
698.6966, 2.601913
699.1787, 2.748932
699.6608, 2.957336
700.1429, 3.220108
700.6251, 3.514069
701.1072, 3.832626
701.5893, 4.192795
702.0714, 4.533813
702.5535, 4.942078
703.0356, 5.583176
703.5178, 6.661255
703.9999, 7.673172
704.4820, 8.450577
704.9641, 9.027603
705.4462, 9.449692
705.9283, 9.400085
706.4105, 9.754517
706.8926, 10.72366
707.3747, 12.09779
707.8568, 13.46234
708.3389, 14.83749
708.8210, 15.97487
709.3032, 16.59796
709.7853, 17.12650
710.2674, 18.47568
710.7495, 20.50882
711.2316, 22.59888
711.7137, 24.30205
712.1959, 26.03009
712.6780, 28.12051
713.1601, 30.53378
713.6422, 32.88269
714.1243, 34.68726
714.6064, 36.80153
715.0886, 39.63315
715.5707, 43.22272
716.0528, 46.72377
716.5349, 50.07407
717.0170, 53.58566
717.4991, 57.37077
717.9813, 61.44498
718.4634, 66.39435
718.9455, 72.23549
719.4276, 78.38136
719.9097, 84.07675
720.3918, 89.88208
720.8740, 96.50183
721.3561, 104.1830
721.8382, 112.1334
722.3203, 119.8000
722.8024, 127.7639
723.2845, 136.6514
723.7667, 147.2795
724.2488, 157.5402
724.7309, 167.0098
725.2130, 176.6811
725.6951, 187.9357
726.1772, 200.8346
726.6594, 213.6914
727.1415, 225.9916
727.6236, 238.2569
728.1057, 251.5286
728.5878, 265.3978
729.0699, 278.8559
729.5521, 290.9511
730.0342, 303.5417
730.5163, 318.4686
730.9984, 334.6556
731.4805, 350.1783
731.9626, 364.1707
732.4448, 377.9410
732.9269, 392.0570
733.4090, 406.0999
733.8911, 418.7831
734.3732, 430.1608
734.8553, 439.5215
735.3375, 446.6326
735.8196, 451.5569
736.3017, 455.0290
736.7838, 456.7670
737.2659, 455.0773
737.7480, 448.4533
738.2302, 438.3440
738.7123, 425.6725
739.1944, 410.5981
739.6765, 393.6590
740.1586, 373.4907
740.6407, 352.9471
741.1229, 333.4342
741.6050, 314.6921
742.0871, 295.5975
742.5692, 275.5833
743.0513, 256.3305
743.5334, 238.6464
744.0156, 222.4425
744.4977, 207.6761
744.9798, 194.2559
745.4619, 181.5453
745.9440, 168.9280
746.4261, 156.9547
746.9083, 146.2259
747.3904, 136.8204
747.8725, 128.4195
748.3546, 121.5417
748.8367, 115.2224
749.3188, 108.7018
749.8010, 101.7107
750.2831, 95.80908
750.7652, 91.53983
751.2473, 87.53149
751.7294, 82.35559
752.2115, 76.08115
752.6937, 70.97775
753.1758, 67.23453
753.6579, 64.18817
754.1400, 61.53555
754.6221, 58.99841
755.1042, 55.90973
755.5864, 51.91895
756.0685, 48.44092
756.5506, 46.77332
757.0327, 45.74207
757.5148, 44.22003
757.9969, 41.63318
758.4791, 39.12897
758.9612, 36.56418
759.4433, 34.23621
759.9254, 32.66617
760.4075, 31.87772
760.8896, 30.93948
761.3718, 29.67676
761.8539, 28.31436
762.3360, 27.07822
762.8181, 25.97241
763.3002, 25.02679
763.7823, 24.32169
764.2645, 23.62738
764.7466, 22.87030
765.2287, 22.03384
765.7108, 21.06625
766.1929, 19.63800
766.6750, 18.57190
767.1572, 18.12012
767.6393, 17.93347
768.1214, 17.37903
768.6035, 16.45645
769.0856, 15.36078
769.5677, 13.89499
770.0499, 12.54446
770.5320, 12.42245
771.0141, 13.09277
771.4962, 13.26450
771.9783, 11.71170
772.4604, 10.13177
772.9426, 9.684509
773.4247, 9.890930
773.9068, 9.610382
774.3889, 7.948944
774.8710, 6.917236
775.3531, 7.176117
775.8353, 8.153625
776.3174, 8.067963
776.7995, 6.845459
777.2816, 5.786163
777.7637, 5.441345
778.2458, 5.503448
778.7280, 5.562134
779.2101, 5.566376
779.6922, 5.412598
780.1743, 4.831940
780.6564, 4.293579
781.1385, 4.158783
781.6207, 4.312561
782.1028, 4.186127
782.5849, 3.385925
783.0670, 2.881561
783.5491, 3.034851
784.0313, 3.644897
784.5134, 3.979187
784.9955, 4.037872
785.4776, 3.786743
785.9597, 2.932190
786.4418, 1.951691
786.9240, 1.771118
787.4061, 2.172424
787.8882, 2.357788
788.3703, 1.614044
788.8524, 0.8539730
789.3345, 0.5657350
789.8167, 0.7047420
790.2988, 0.7701720
790.7809, 0.7398990
791.2630, 0.6585080
791.7451, 0.4908750
792.2272, 0.2971500
792.7094, 0.4465330
793.1915, 0.9175110
793.6736, 1.174591
794.1557, 0.6215210
794.6378, 0.1409610
795.1199, 0.2890010
795.6021, 6.7107998E-02
796.0842, 0.3928530
796.5663, 0.6560970
797.0484, 0.6443480
797.5305, 8.4229000E-02
798.0126, 1.354309
798.4948, 1.551422
798.9769, 0.1508480
799.4590, 1.031250
799.9411, 1.126312
800.4232, 0.4359130
800.9053, 4.4769000E-02
801.3875, 5.8044001E-02
801.8696, 1.0223000E-02
802.3517, 0.2591860
802.8338, 0.5896300
803.3159, 0.9630130
803.7980, 1.350311
804.2802, 1.600342
804.7623, 1.553619
805.2444, 1.469177
805.7265, 1.451263
806.2086, 1.482239
806.6907, 1.390045
807.1729, 1.120819
807.6550, 0.9422910
808.1371, 0.9724730
808.6192, 1.184967
809.1013, 1.590210
809.5834, 2.149597
810.0656, 2.640106
810.5477, 2.987366
811.0298, 3.174438
811.5119, 3.086945
811.9940, 2.782349
812.4761, 2.678528
812.9583, 3.287445
813.4404, 3.510529
813.9225, 2.750275
814.4046, 1.299683
814.8867, 1.121460
815.3688, 2.291534
815.8510, 3.225952
816.3331, 2.761047
816.8152, 1.746063
817.2973, 1.674957
817.7794, 2.338898
818.2615, 2.920471
818.7437, 3.127930
819.2258, 3.031647
819.7079, 2.393280
820.1900, 1.364044
820.6721, 1.041138
821.1542, 1.858856
821.6364, 2.396515
822.1185, 2.054413
822.6006, 1.159546
823.0827, 0.8335880
823.5648, 1.011627
824.0469, 1.127472
824.5291, 0.9045100
825.0112, 0.4766850
825.4933, 0.2859500
825.9754, 1.176086
826.4575, 1.557220
826.9396, 0.4005130
827.4218, 0.3211360
827.9039, 0.2443540
828.3860, 1.576599
828.8681, 1.778961
829.3502, 0.6238400
829.8323, 0.3077090
830.3145, 0.4376830
830.7966, 9.1797002E-02
831.2787, 0.1897580
831.7608, 0.4292910
832.2429, 0.6823430
832.7250, 1.248016
833.2072, 1.563995
833.6893, 1.012512
834.1714, 1.0681000E-02
834.6535, 0.4101560
835.1356, 0.3408810
835.6177, 0.8482360
836.0999, 0.8175960
836.5820, 0.4571230
837.0641, 0.2650450
837.5462, 0.2140810
838.0283, 4.6478000E-02
838.5104, 0.7922970
838.9926, 1.490662
839.4747, 1.368195
839.9568, 0.8172300
840.4389, 0.5207520
840.9210, 0.8689270
841.4031, 1.305115
841.8853, 1.756866
842.3674, 2.199615
842.8495, 2.657959
843.3316, 3.213409
843.8137, 3.268524
844.2958, 2.564392
844.7780, 1.745819
845.2601, 1.889404
845.7422, 2.656738
846.2243, 3.232941
846.7064, 3.365204
847.1885, 3.356354
847.6707, 3.285950
848.1528, 3.215240
848.6349, 3.225281
849.1170, 3.461639
849.5991, 3.518707
850.0812, 3.320953
850.5634, 3.062317
851.0455, 2.906921
851.5276, 2.868073
852.0097, 3.104645
852.4918, 3.668182
852.9739, 4.168304
853.4561, 4.096985
853.9382, 3.862305
854.4203, 4.006317
854.9024, 4.852173
855.3845, 5.350189
855.8666, 4.909302
856.3488, 4.336487
856.8309, 4.236664
857.3130, 4.606567
857.7951, 4.710938
858.2772, 4.524139
858.7593, 4.318207
859.2415, 4.315155
859.7236, 4.431885
860.2057, 4.601563
860.6878, 4.806519
861.1699, 4.888428
861.6520, 4.488556
862.1342, 4.180023
862.6163, 4.450348
863.0984, 5.332397
863.5805, 5.815491
864.0626, 5.871124
864.5447, 5.612885
865.0269, 4.933685
865.5090, 4.015045
865.9911, 3.492462
866.4732, 3.345306
866.9553, 3.403839
867.4374, 3.711578
867.9196, 4.065857
868.4017, 4.280518
868.8838, 4.383148
869.3659, 4.656982
869.8480, 5.442139
870.3301, 5.840271
870.8123, 5.471283
871.2944, 4.577881
871.7765, 3.898010
872.2586, 3.443909
872.7407, 3.312988
873.2228, 3.732941
873.7050, 4.290070
874.1871, 4.586395
874.6692, 4.692444
875.1513, 4.763611
875.6334, 4.765167
876.1155, 4.842346
876.5977, 4.934174
877.0798, 5.167114
877.5619, 5.892792
878.0440, 7.170624
878.5261, 8.071075
879.0082, 8.320038
879.4904, 8.393494
879.9725, 8.841766
880.4546, 9.579865
880.9367, 10.46384
881.4188, 11.46478
881.9009, 12.57993
882.3831, 13.93658
882.8652, 15.33600
883.3473, 16.48929
883.8294, 17.25748
884.3115, 18.32336
884.7936, 19.83826
885.2758, 21.51794
885.7579, 23.11508
886.2400, 24.57349
886.7221, 25.76935
887.2042, 26.71036
887.6863, 28.16922
888.1685, 31.19809
888.6506, 34.38354
889.1327, 36.64960
889.6148, 37.82983
890.0969, 39.07401
890.5790, 40.33554
891.0612, 41.75287
891.5433, 43.56421
892.0254, 45.64557
892.5075, 47.47064
892.9896, 48.99576
893.4717, 50.13858
893.9539, 51.07156
894.4360, 51.48981
894.9181, 51.01794
895.4002, 49.75490
895.8823, 48.46111
896.3644, 47.32460
896.8466, 45.90182
897.3287, 44.05940
897.8108, 41.86589
898.2929, 39.20868
898.7750, 36.22083
899.2571, 33.70459
899.7393, 32.34816
900.2214, 31.00391
900.7035, 28.48503
901.1856, 25.38605
901.6677, 22.76205
902.1498, 21.21906
902.6320, 19.59521
903.1141, 17.75130
903.5962, 15.85255
904.0783, 14.17322
904.5604, 12.68227
905.0425, 11.13620
905.5247, 9.458252
906.0068, 7.979645
906.4889, 7.166473
906.9710, 6.647552
907.4531, 6.032013
907.9352, 5.246170
908.4174, 4.371323
908.8995, 3.367294
909.3816, 2.341858
909.8637, 1.299026
910.3458, 0.2251130
910.8279, 0.3142850
911.3101, 0.3101040
911.7922, 0.3276670
912.2743, 0.9151310
912.7564, 1.653030
913.2385, 2.142105
913.7206, 2.365341
914.2028, 2.352615
914.6849, 1.842133
915.1670, 1.418777
915.6491, 1.377090
916.1312, 1.526871
916.6133, 1.022949
917.0955, 0.1514280
917.5776, 1.185211
918.0597, 1.697922
918.5418, 2.064957
919.0239, 2.726288
919.5060, 3.593384
919.9882, 4.485138
920.4703, 5.227936
920.9524, 6.148956
921.4345, 7.274780
921.9166, 8.598557
922.3987, 10.23145
922.8809, 12.21881
923.3630, 13.67064
923.8451, 14.39398
924.3272, 15.15550
924.8093, 16.84309
925.2914, 19.02657
925.7736, 21.09854
926.2557, 22.93387
926.7378, 24.95676
927.2199, 27.30048
927.7020, 29.84634
928.1841, 32.55168
928.6663, 35.40955
929.1484, 38.29926
929.6305, 41.22037
930.1126, 44.68393
930.5947, 49.37950
931.0768, 54.62144
931.5590, 59.31624
932.0411, 63.72969
932.5232, 68.71552
933.0053, 75.10651
933.4874, 81.55618
933.9695, 87.54156
934.4517, 93.45499
934.9338, 100.3187
935.4159, 108.0780
935.8980, 117.1041
936.3801, 127.6344
936.8622, 138.6447
937.3444, 148.5004
937.8265, 157.9568
938.3086, 168.2413
938.7907, 179.5495
939.2728, 191.7910
939.7549, 205.1032
940.2371, 219.0033
940.7192, 233.5477
941.2013, 248.6998
941.6834, 263.5565
942.1655, 277.9903
942.6476, 292.9122
943.1298, 309.0811
943.6119, 325.9138
944.0940, 343.6077
944.5761, 362.1548
945.0582, 378.6372
945.5403, 391.6909
946.0225, 403.4641
946.5046, 415.1437
946.9867, 425.8837
947.4688, 432.4081
947.9509, 434.6964
948.4330, 433.8529
948.9152, 430.6035
949.3973, 424.0396
949.8794, 412.5174
950.3615, 397.2327
950.8436, 380.2386
951.3257, 361.3749
951.8079, 341.8560
952.2900, 321.4112
952.7721, 300.8277
953.2542, 280.7598
953.7363, 261.3063
954.2184, 243.2645
954.7006, 226.6859
955.1827, 211.2496
955.6648, 196.4788
956.1469, 182.5901
956.6290, 169.9251
957.1111, 158.5050
957.5933, 148.2939
958.0754, 139.4633
958.5575, 131.3863
959.0396, 123.8198
959.5217, 116.8819
960.0038, 110.9381
960.4860, 105.8262
960.9681, 100.9243
961.4502, 95.73291
961.9323, 90.94971
962.4144, 87.13016
962.8965, 84.04041
963.3787, 81.25674
963.8608, 78.84512
964.3429, 76.28622
964.8250, 73.40710
965.3071, 70.64740
965.7892, 68.70010
966.2714, 67.32489
966.7535, 66.01067
967.2356, 64.73853
967.7177, 63.33824
968.1998, 61.27348
968.6819, 59.30193
969.1641, 58.17661
969.6462, 57.98531
970.1283, 57.20392
970.6104, 55.75787
971.0925, 54.28543
971.5746, 53.03889
972.0568, 51.97894
972.5389, 51.27359
973.0210, 50.75114
973.5031, 49.93648
973.9852, 48.07437
974.4673, 46.61649
974.9495, 46.43629
975.4316, 46.62570
975.9137, 45.51749
976.3958, 43.00186
976.8779, 40.86171
977.3600, 39.41095
977.8422, 38.45834
978.3243, 38.26083
978.8064, 38.18407
979.2885, 37.26997
979.7706, 35.08688
980.2527, 33.48372
980.7349, 33.15842
981.2170, 32.96544
981.6991, 32.22141
982.1812, 30.96840
982.6633, 30.02560
983.1454, 29.36795
983.6276, 28.62616
984.1097, 27.31734
984.5918, 26.07448
985.0739, 25.63536
985.5560, 25.63628
986.0381, 25.05237
986.5203, 23.34521
987.0024, 22.08713
987.4845, 21.59947
987.9666, 21.39197
988.4487, 20.70076
988.9308, 19.71611
989.4130, 18.97916
989.8951, 18.60828
990.3772, 18.25417
990.8593, 17.68236
991.3414, 17.08395
991.8235, 16.59561
992.3057, 16.21999
992.7878, 15.94595
993.2699, 15.79601
993.7520, 15.48186
994.2341, 14.79126
994.7162, 13.88611
995.1984, 12.93985
995.6805, 12.00269
996.1626, 11.25864
996.6447, 11.04482
997.1268, 10.66507
997.6089, 9.809250
998.0911, 8.836761
998.5732, 8.284042
999.0553, 8.141495
999.5374, 8.026855
1000.020, 7.912399
1000.502, 7.740189
1000.984, 7.474030
1001.466, 7.114670
1001.948, 6.601379
1002.430, 5.912216
1002.912, 5.479706
1003.394, 5.451691
1003.876, 5.419006
1004.359, 5.180130
1004.841, 4.838852
1005.323, 4.842072
1005.805, 5.064346
1006.287, 5.007645
1006.769, 4.151260
1007.251, 3.353455
1007.733, 3.200851
1008.216, 3.309464
1008.698, 3.124435
1009.180, 2.502289
1009.662, 2.141479
1010.144, 2.109070
1010.626, 2.152756
1011.108, 2.117020
1011.590, 1.959473
1012.072, 1.482574
1012.555, 0.7029720
1013.037, 0.2232210
1013.519, 0.5914920
1014.001, 0.9020540
1014.483, 0.8205410
1014.965, 0.4794310
1015.447, 0.3803560
1015.929, 0.4877470
1016.411, 0.3905180
1016.894, 0.1912840
1017.376, 0.6664580
1017.858, 0.3213200
1018.340, 0.3498080
1018.822, 0.7331390
1019.304, 0.6736600
1019.786, 0.4909520
1020.268, 0.1258540
1020.751, 0.1992340
1021.233, 0.2206120
1021.715, 9.2009999E-02
1022.197, 0.2734380
1022.679, 0.7169800
1023.161, 1.085648
1023.643, 1.081024
1024.125, 1.120667
1024.607, 1.559540
1025.090, 2.090347
1025.572, 1.973312
1026.054, 1.155670
1026.536, 0.4612880
1027.018, 9.7960001E-03
1027.500, 0.1398470
1027.982, 0.3993070
1028.464, 1.098206
1028.947, 1.322495
1029.429, 0.8887480
1029.911, 0.3304140
1030.393, 0.5257570
1030.875, 1.080597
1031.357, 0.9238430
1031.839, 0.2817690
1032.321, 0.1769410
1032.803, 0.4380950
1033.286, 0.4736020
1033.768, 0.1206820
1034.250, 0.3003690
1034.732, 0.7518920
1035.214, 1.135651
1035.696, 1.283188
1036.178, 1.121185
1036.660, 1.186310
1037.143, 1.570908
1037.625, 1.771866
1038.107, 0.9006810
1038.589, 0.1781920
1039.071, 0.2647250
1039.553, 0.6585390
1040.035, 1.474747
1040.517, 1.989151
1041.000, 2.285370
1041.482, 2.290543
1041.964, 2.182373
1042.446, 2.494125
1042.928, 3.096115
1043.410, 3.442749
1043.892, 3.331131
1044.374, 3.075195
1044.856, 2.804016
1045.339, 2.526886
1045.821, 2.203491
1046.303, 1.786514
1046.785, 1.775482
1047.267, 2.220596
1047.749, 2.636642
1048.231, 2.731995
1048.713, 2.593903
1049.195, 2.142563
1049.677, 1.541046
1050.160, 1.269653
1050.642, 1.895630
1051.124, 2.236954
1051.606, 2.062027
1052.088, 1.710754
1052.570, 1.660553
1053.052, 1.829788
1053.534, 1.916855
1054.017, 1.883835
1054.499, 1.830948
1054.981, 1.772339
1055.463, 1.759247
1055.945, 1.880096
1056.427, 2.092957
1056.909, 2.083557
1057.391, 1.815857
1057.874, 1.790817
1058.356, 2.329147
1058.838, 2.872971
1059.320, 2.609726
1059.802, 1.968567
1060.284, 1.556656
1060.766, 1.623230
1061.248, 1.606369
1061.730, 1.370300
1062.213, 1.281158
1062.695, 1.740616
1063.177, 2.542969
1063.659, 2.894989
1064.141, 2.885010
1064.623, 2.941208
1065.105, 3.568298
1065.587, 3.968613
1066.070, 3.518219
1066.552, 2.811157
1067.034, 2.833466
1067.516, 3.617371
1067.998, 3.958923
1068.480, 3.681549
1068.962, 3.347794
1069.444, 3.431717
1069.927, 3.724945
1070.409, 4.124191
1070.891, 4.597748
1071.373, 4.805542
1071.855, 4.681946
1072.337, 4.415649
1072.819, 3.930298
1073.301, 3.548904
1073.783, 4.046768
1074.266, 5.044739
1074.748, 5.686279
1075.230, 5.539291
1075.712, 5.734955
1076.194, 6.932785
1076.676, 7.962540
1077.158, 8.109009
1077.640, 7.491577
1078.122, 7.270325
1078.604, 7.421478
1079.087, 7.833099
1079.569, 8.655380
1080.051, 9.483322
1080.533, 10.03546
1081.015, 10.42334
1081.497, 10.89116
1081.979, 11.44232
1082.461, 12.07065
1082.944, 12.81320
1083.426, 13.35619
1083.908, 13.12590
1084.390, 12.72136
1084.872, 12.84721
1085.354, 13.49432
1085.836, 14.24071
1086.318, 15.28374
1086.801, 15.94992
1087.283, 16.07675
1087.765, 15.84882
1088.247, 15.35641
1088.729, 14.79364
1089.211, 14.85147
1089.693, 15.83145
1090.175, 16.32077
1090.657, 15.22717
1091.140, 14.01675
1091.622, 13.54778
1092.104, 13.71381
1092.586, 13.57985
1093.068, 13.14165
1093.550, 12.52715
1094.032, 11.59332
1094.514, 10.78815
1094.997, 10.58394
1095.479, 10.63351
1095.961, 10.43436
1096.443, 9.834076
1096.925, 9.325348
1097.407, 8.948090
1097.889, 8.740112
1098.371, 8.912277
1098.854, 9.156433
1099.336, 9.078781
1099.818, 8.725052
1100.300, 8.311417
1100.782, 7.691513
1101.264, 7.393356
1101.746, 7.621307
1102.228, 7.926819
1102.710, 7.682938
1103.193, 7.044968
1103.675, 6.288147
1104.157, 5.453003
1104.639, 4.881866
1105.121, 4.989624
1105.603, 5.091446
1106.085, 4.909531
1106.567, 4.539734
1107.049, 4.241425
1107.531, 3.995514
1108.014, 3.799194
1108.496, 3.652466
1108.978, 3.580231
1109.460, 3.645935
1109.942, 3.748627
1110.424, 3.848373
1110.906, 3.974548
1111.388, 3.798187
1111.871, 3.269577
1112.353, 2.851212
1112.835, 2.880295
1113.317, 2.990387
1113.799, 2.705444
1114.281, 2.256973
1114.763, 2.028519
1115.245, 2.248199
1115.728, 2.370438
1116.210, 2.422073
1116.692, 2.322647
1117.174, 1.795456
1117.656, 1.168579
1118.138, 1.172241
1118.620, 1.661133
1119.102, 1.979889
1119.584, 1.679947
1120.067, 1.521515
1120.549, 1.667953
1121.031, 1.943207
1121.513, 2.183685
1121.995, 2.339096
1122.477, 2.185944
1122.959, 1.713394
1123.441, 1.293976
1123.924, 1.052490
1124.406, 0.9913180
1124.888, 1.187302
1125.370, 1.523499
1125.852, 1.666519
1126.334, 1.624344
1126.816, 1.462524
1127.298, 1.167892
1127.781, 0.9408570
1128.263, 0.9977570
1128.745, 1.133224
1129.227, 1.185211
1129.709, 1.153412
1130.191, 1.085281
1130.673, 0.9724730
1131.155, 0.9254150
1131.637, 1.110397
1132.120, 1.166412
1132.602, 0.3064120
1133.084, 0.7556610
1133.566, 0.9083400
1134.048, 0.3562010
1134.530, 1.169968
1135.012, 1.476501
1135.494, 1.562790
1135.976, 1.612656
1136.458, 1.561707
1136.941, 1.172562
1137.423, 0.6106410
1137.905, 0.2789760
1138.387, 0.5307770
1138.869, 0.6431880
1139.351, 0.5225220
1139.833, 0.3874660
1140.315, 0.5518650
1140.798, 0.8370360
1141.280, 0.7164460
1141.762, 0.2526090
1142.244, 2.1667000E-02
1142.726, 0.3805390
1143.208, 0.6329960
1143.690, 0.5009460
1144.172, 0.1997530
1144.655, 6.8343997E-02
1145.137, 5.5969000E-02
1145.619, 0.1110690
1146.101, 0.4672700
1146.583, 0.6840060
1147.065, 0.4483640
1147.547, 0.1649020
1148.029, 5.7219998E-03
1148.511, 7.3669001E-02
1148.994, 3.7735000E-02
1149.476, 0.2792820
1149.958, 0.2186740
1150.440, 0.2312010
1150.922, 1.062836
1151.404, 2.735535
1151.886, 4.392181
1152.368, 5.413544
1152.851, 5.826584
1153.333, 5.637512
1153.815, 4.839417
1154.297, 4.719223
1154.779, 6.157639
1155.261, 7.540283
1155.743, 7.162247
1156.225, 6.018692
1156.708, 5.296631
1157.190, 5.180939
1157.672, 4.488235
1158.154, 3.145554
1158.636, 1.851898
1159.118, 0.8598940
1159.600, 0.2851560
1160.082, 0.6196290
1160.564, 1.363739
1161.047, 1.615234
1161.529, 0.9528810
1162.011, 0.5526280
1162.493, 0.4699710
1162.975, 0.4303590
1163.457, 0.1507720
1163.939, 0.1666410
1164.421, 0.2112270
1164.903, 5.0841998E-02
1165.385, 0.1034090
1165.868, 0.2231750
1166.350, 0.3062130
1166.832, 0.3744660
1167.314, 0.3368070
1167.796, 9.0530001E-02
1168.278, 0.5983120
1168.760, 0.5154570
1169.242, 8.3878003E-02
1169.725, 0.4965970
1170.207, 0.3306270
1170.689, 0.2267760
1171.171, 0.2874600
1171.653, 0.4366300
1172.135, 0.5870060
1172.617, 0.7412570
1173.099, 0.9804230
1173.582, 1.302750
1174.064, 1.340118
1174.546, 0.6192320
1175.028, 1.3428000E-02
1175.510, 0.2747960
1175.992, 0.2951350
1176.474, 3.7627999E-02
1176.956, 0.3969570
1177.438, 0.7129970
1177.921, 0.8459930
1178.403, 0.9571990
1178.885, 1.208389
1179.367, 1.327713
1179.849, 1.162506
1180.331, 0.8201140
1180.813, 0.5540160
1181.295, 0.4013370
1181.778, 0.5677800
1182.260, 1.251373
1182.742, 1.741547
1183.224, 1.660049
1183.706, 1.318466
1184.188, 0.7705380
1184.670, 0.1197810
1185.152, 5.9875000E-02
1185.635, 0.4845120
1186.117, 0.8515010
1186.599, 0.9521180
1187.081, 0.9619290
1187.563, 0.8864750
1188.045, 0.8201140
1188.527, 0.8557130
1189.009, 0.9796140
1189.491, 0.9223630
1189.974, 0.7268520
1190.456, 0.7139890
1190.938, 1.303116
1191.420, 1.708328
1191.902, 1.405701
1192.384, 0.8657530
1192.866, 0.5967640
1193.348, 0.6028900
1193.830, 0.5607910
1194.313, 0.4787670
1194.795, 0.4911120
1195.277, 0.7989350
1195.759, 1.084610
1196.241, 1.174652
1196.723, 1.144669
1197.205, 1.068680
1197.687, 0.9446410
1198.169, 0.8712160
1198.652, 0.8567960
1199.134, 0.9319000
1199.616, 1.328484
1200.098, 1.598083
1200.580, 1.275291
1201.062, 1.509842
1201.544, 1.466629
1202.026, 1.261520
1202.509, 1.319550
1202.991, 0.8191990
1203.473, 0.4026260
1203.955, 0.6904140
1204.437, 1.038620
1204.919, 1.029732
1205.401, 0.8029170
1205.883, 0.6287080
1206.365, 0.4961780
1206.848, 0.5574800
1207.330, 0.8361210
1207.812, 1.088501
1208.294, 1.140198
1208.776, 1.083984
1209.258, 0.8445280
1209.740, 0.5695880
1210.222, 0.8235240
1210.705, 1.618462
1211.187, 1.851799
1211.669, 1.271141
1212.151, 0.6743850
1212.633, 0.7060390
1213.115, 0.9632950
1213.597, 1.261971
1214.079, 1.534149
1214.562, 1.505447
1215.044, 1.184265
1215.526, 0.9021000
1216.008, 0.7171550
1216.490, 0.6655650
1216.972, 0.9104840
1217.454, 1.176262
1217.936, 1.191818
1218.418, 1.039574
1218.901, 1.171356
1219.383, 1.572044
1219.865, 2.068748
1220.347, 2.698364
1220.829, 3.063660
1221.311, 2.605553
1221.793, 1.984474
1222.275, 1.723862
1222.757, 1.777252
1223.240, 1.677986
1223.722, 1.439262
1224.204, 1.213638
1224.686, 0.9900510
1225.168, 0.9710310
1225.650, 1.639130
1226.132, 2.225166
1226.614, 2.107742
1227.096, 1.421257
1227.579, 1.190536
1228.061, 1.368866
1228.543, 1.607918
1229.025, 1.875137
1229.507, 1.934135
1229.989, 1.325325
1230.471, 0.7490540
1230.953, 0.7890010
1231.436, 1.361588
1231.918, 1.734016
1232.400, 1.910713
1232.882, 1.944115
1233.364, 1.839035
1233.846, 1.619888
1234.328, 1.116989
1234.810, 0.6810460
1235.292, 0.5900340
1235.775, 0.8047030
1236.257, 1.087265
1236.739, 1.395302
1237.221, 1.484848
1237.703, 0.9270020
1238.185, 0.6562270
1238.667, 1.456978
1239.149, 2.243935
1239.632, 2.113121
1240.114, 1.276489
1240.596, 0.9786910
1241.078, 1.122398
1241.560, 1.291794
1242.042, 1.212952
1242.524, 1.271889
1243.006, 1.641945
1243.489, 2.071304
1243.971, 2.439148
1244.453, 2.696106
1244.935, 2.505737
1245.417, 1.993469
1245.899, 1.629112
1246.381, 1.630058
1246.863, 1.798584
1247.345, 2.210403
1247.828, 2.528664
1248.310, 2.384796
1248.792, 1.960014
1249.274, 1.627350
1249.756, 1.430809
1250.238, 1.501083
1250.720, 2.357880
1251.202, 2.705528
1251.684, 2.252861
1252.167, 1.746094
1252.649, 1.980476
1253.131, 2.531456
1253.613, 2.531914
1254.095, 2.122208
1254.577, 1.839211
1255.059, 1.924141
1255.541, 1.930626
1256.023, 1.792564
1256.506, 1.710869
1256.988, 2.024025
1257.470, 2.378693
1257.952, 2.160309
1258.434, 1.572639
1258.916, 1.286324
1259.398, 1.533722
1259.880, 1.598763
1260.363, 1.415970
1260.845, 1.192680
1261.327, 1.004982
1261.809, 0.9495090
1262.291, 1.229759
1262.773, 1.704887
1263.255, 2.024582
1263.737, 2.202171
1264.219, 2.011612
1264.702, 1.403946
1265.184, 0.9327470
1265.666, 1.258560
1266.148, 1.659973
1266.630, 1.491798
1267.112, 1.565353
1267.594, 1.423882
1268.076, 1.091316
1268.559, 0.9222340
1269.041, 0.3245160
1269.523, 1.1871000E-02
1270.005, 0.7290500
1270.487, 1.497070
1270.969, 1.620819
1271.451, 1.427956
1271.933, 1.339302
1272.416, 1.340881
1272.898, 1.194702
1273.380, 0.9090730
1273.862, 0.7669600
1274.344, 1.167999
1274.826, 1.437881
1275.308, 1.288750
1275.790, 0.9692230
1276.272, 0.7210010
1276.755, 0.5704120
1277.237, 0.7326580
1277.719, 1.146645
1278.201, 1.329170
1278.683, 0.7804870
1279.165, 0.3925700
1279.647, 0.3778460
1280.129, 0.4689560
1280.611, 0.3315660
1281.094, 8.6860999E-02
1281.576, 5.1681999E-02
1282.058, 6.4552002E-02
1282.540, 9.7159997E-02
1283.022, 0.6373830
1283.504, 0.9891890
1283.986, 1.095474
1284.468, 1.006874
1284.950, 0.6260150
1285.433, 0.1833720
1285.915, 2.2194000E-02
1286.397, 8.2336001E-02
1286.879, 5.0354000E-02
1287.361, 0.1563870
1287.843, 0.2148740
1288.325, 8.5716002E-02
1288.807, 0.1139220
1289.290, 0.3252640
1289.772, 0.5253070
1290.254, 0.7099760
1290.736, 0.8594130
1291.218, 0.9384380
1291.700, 0.9424740
1292.182, 0.8856890
1292.664, 0.8218690
1293.146, 0.8192370
1293.629, 1.006355
1294.111, 1.199875
1294.593, 1.287529
1295.075, 1.124763
1295.557, 1.134369
1296.039, 1.229355
1296.521, 1.181717
1297.003, 1.005646
1297.486, 0.9250640
1297.968, 1.299271
1298.450, 1.444908
1298.932, 1.155121
1299.414, 0.7392270
1299.896, 0.5906750
1300.378, 0.6055680
1300.860, 0.3721620
1301.343, 3.2500001E-03
1301.825, 0.0000000E+00
##END=



