##NAMES=Hennomartinite
##RRUFFID=R130039
##IDEAL CHEMISTRY=SrMn^3+^_2_Si_2_O_7_(OH)_2_&#183;H_2_O
##LOCALITY=Wessels mine, Kuruman, Kalahari Manganese fields, Cape Province, South Africa
##OWNER=RRUFF
##SOURCE=William W. Pinch
##DESCRIPTION=Brown spherical aggregates, associated with purple sugilite, brownish quartz and white hydroxyapophyllite-(K).
##STATUS=The identification of this mineral has been confirmed only by single crystal X-ray diffraction.
##URL=rruff.info/R130039
219.3208, 0.0000000E+00
219.8029, 6.5323003E-02
220.2850, 1.049179
220.7671, 2.635849
221.2492, 4.462982
221.7314, 6.509491
222.2135, 8.748383
222.6956, 11.18753
223.1777, 13.97910
223.6598, 17.24052
224.1419, 20.64981
224.6240, 24.03244
225.1062, 27.41003
225.5883, 30.78032
226.0704, 34.13820
226.5525, 37.38113
227.0346, 40.37079
227.5167, 43.39269
227.9989, 45.98632
228.4810, 47.79675
228.9631, 48.88503
229.4452, 49.16983
229.9273, 48.54973
230.4094, 47.15928
230.8916, 45.05547
231.3737, 41.86014
231.8558, 38.11535
232.3379, 34.38308
232.8200, 30.80666
233.3021, 27.05303
233.7843, 23.61173
234.2664, 20.62537
234.7485, 17.87437
235.2306, 15.33341
235.7127, 12.97585
236.1948, 10.72216
236.6770, 8.492195
237.1591, 6.596916
237.6412, 5.335884
238.1233, 4.441483
238.6054, 3.669319
239.0875, 2.971680
239.5697, 2.323021
240.0518, 1.665161
240.5339, 0.9486920
241.0160, 0.3776400
241.4981, 0.1185530
241.9802, 1.0910000E-03
242.4624, 0.1370540
242.9445, 0.3480380
243.4266, 0.5718840
243.9087, 0.6796950
244.3908, 0.6025920
244.8729, 0.5976100
245.3550, 0.9543760
245.8372, 1.299225
246.3193, 1.274040
246.8014, 0.7472150
247.2835, 6.7084998E-02
247.7656, 0.8405990
248.2477, 1.544884
248.7299, 2.202103
249.2120, 2.710968
249.6941, 3.302521
250.1762, 4.162621
250.6583, 5.144928
251.1404, 6.317482
251.6226, 7.662567
252.1047, 9.095940
252.5868, 10.62730
253.0689, 12.35773
253.5510, 14.06001
254.0331, 15.47869
254.5153, 16.47140
254.9974, 17.34800
255.4795, 18.39736
255.9616, 19.72942
256.4437, 21.00499
256.9258, 22.18371
257.4080, 23.36030
257.8901, 24.66259
258.3722, 26.08109
258.8543, 27.43773
259.3364, 28.49498
259.8185, 29.14705
260.3007, 29.75616
260.7828, 30.37994
261.2649, 30.93161
261.7470, 31.40582
262.2291, 31.77639
262.7112, 31.95154
263.1934, 31.79446
263.6755, 31.16615
264.1576, 30.70675
264.6397, 30.80960
265.1218, 30.72727
265.6039, 29.90280
266.0861, 28.42126
266.5682, 26.84281
267.0503, 25.73328
267.5324, 25.20698
268.0145, 24.43942
268.4966, 23.32524
268.9788, 22.12121
269.4609, 20.95174
269.9430, 19.81206
270.4251, 18.61807
270.9072, 17.27342
271.3893, 15.77429
271.8715, 14.52989
272.3536, 13.62907
272.8357, 12.83630
273.3178, 12.24672
273.7999, 11.71291
274.2820, 10.83277
274.7642, 9.261307
275.2463, 7.089569
275.7284, 5.506035
276.2105, 4.786438
276.6926, 4.192429
277.1747, 3.648087
277.6568, 3.047249
278.1389, 2.444412
278.6211, 1.861641
279.1032, 1.304649
279.5853, 0.8024980
280.0674, 0.2208860
280.5495, 0.1729890
281.0316, 0.1616520
281.5138, 6.4467996E-02
281.9959, 0.1660610
282.4780, 7.2559998E-03
282.9601, 0.3687440
283.4422, 0.7085950
283.9243, 1.076962
284.4065, 1.346939
284.8886, 1.459084
285.3707, 1.465370
285.8528, 1.435654
286.3349, 1.391071
286.8170, 1.327312
287.2992, 1.256313
287.7813, 1.218342
288.2634, 1.038185
288.7455, 0.5526580
289.2276, 2.6672000E-02
289.7097, 0.4212720
290.1919, 0.5676540
290.6740, 0.6447180
291.1561, 0.8635290
291.6382, 1.238831
292.1203, 1.669682
292.6024, 2.228470
293.0846, 2.792675
293.5667, 3.203861
294.0488, 3.447250
294.5309, 3.706509
295.0130, 4.164719
295.4951, 4.828323
295.9773, 5.450821
296.4594, 5.992550
296.9415, 6.514187
297.4236, 7.095165
297.9057, 7.721588
298.3878, 8.263588
298.8700, 8.598747
299.3521, 8.758476
299.8342, 8.994896
300.3163, 9.362961
300.7984, 9.746021
301.2805, 10.05000
301.7627, 10.30836
302.2448, 10.68710
302.7269, 11.34021
303.2090, 12.08329
303.6911, 12.43916
304.1732, 12.24077
304.6554, 12.06615
305.1375, 12.20760
305.6196, 12.55237
306.1017, 12.86575
306.5838, 13.06587
307.0659, 13.18693
307.5481, 13.26401
308.0302, 13.25421
308.5123, 13.35630
308.9944, 13.71680
309.4765, 14.21344
309.9586, 14.63820
310.4408, 14.93917
310.9229, 15.15625
311.4050, 15.30711
311.8871, 15.38720
312.3692, 15.51823
312.8513, 15.72912
313.3335, 16.00092
313.8156, 16.30079
314.2977, 16.62163
314.7798, 17.02171
315.2619, 17.62367
315.7440, 18.40261
316.2262, 18.98166
316.7083, 19.16808
317.1904, 19.25799
317.6725, 19.50106
318.1546, 19.89793
318.6367, 20.29448
319.1188, 20.56749
319.6010, 20.76041
320.0831, 21.07849
320.5652, 21.58320
321.0473, 22.14803
321.5294, 22.74779
322.0115, 23.36032
322.4937, 23.93006
322.9758, 24.45213
323.4579, 24.88253
323.9400, 25.09419
324.4221, 25.03389
324.9042, 24.92414
325.3864, 24.85412
325.8685, 24.78715
326.3506, 24.65493
326.8327, 24.43642
327.3148, 24.14560
327.7969, 23.82222
328.2791, 23.50540
328.7612, 22.98475
329.2433, 22.06155
329.7254, 20.98928
330.2075, 20.10000
330.6896, 19.45104
331.1718, 18.78625
331.6539, 17.79538
332.1360, 16.44844
332.6181, 15.33287
333.1002, 14.76672
333.5823, 14.20728
334.0645, 13.13172
334.5466, 11.60765
335.0287, 10.21558
335.5108, 9.397476
335.9929, 9.069283
336.4750, 8.566181
336.9572, 7.767132
337.4393, 6.930347
337.9214, 6.097828
338.4035, 5.291180
338.8856, 4.612877
339.3677, 4.128048
339.8499, 3.762390
340.3320, 3.321865
340.8141, 2.731522
341.2962, 2.178349
341.7783, 1.719006
342.2604, 1.311623
342.7426, 0.8919560
343.2247, 0.4462430
343.7068, 4.4224001E-02
344.1889, 0.2069510
344.6710, 0.2286950
345.1531, 0.3132060
345.6353, 0.6122020
346.1174, 0.8647650
346.5995, 0.7959140
347.0816, 0.4153790
347.5637, 4.0440001E-03
348.0458, 0.1687700
348.5280, 8.2957998E-02
349.0101, 0.1419490
349.4922, 0.3964230
349.9743, 0.7187350
350.4564, 1.056931
350.9385, 1.417816
351.4207, 1.822628
351.9028, 2.277195
352.3849, 2.790276
352.8670, 3.416237
353.3491, 4.354069
353.8312, 5.158173
354.3134, 5.653072
354.7955, 6.032837
355.2776, 6.502014
355.7597, 7.135410
356.2418, 7.920128
356.7239, 8.847275
357.2061, 10.00418
357.6882, 11.13542
358.1703, 12.23539
358.6524, 13.31799
359.1345, 14.38921
359.6166, 15.45234
360.0987, 16.48529
360.5808, 17.45444
361.0630, 18.33532
361.5451, 19.39798
362.0272, 20.70771
362.5093, 22.11359
362.9914, 23.66850
363.4735, 25.28038
363.9557, 26.72148
364.4378, 27.82884
364.9199, 28.74792
365.4020, 30.11299
365.8841, 32.32089
366.3662, 34.45485
366.8484, 36.43017
367.3305, 38.26722
367.8126, 39.93472
368.2947, 41.43227
368.7768, 42.90958
369.2589, 44.63957
369.7411, 46.77203
370.2232, 48.74027
370.7053, 50.38969
371.1874, 51.99969
371.6695, 53.68391
372.1516, 55.46560
372.6338, 57.38590
373.1159, 59.52379
373.5980, 61.86420
374.0801, 64.02198
374.5622, 65.84728
375.0443, 67.66739
375.5265, 69.56908
376.0086, 71.54377
376.4907, 73.56959
376.9728, 75.66541
377.4549, 77.76831
377.9370, 79.72732
378.4192, 81.47783
378.9013, 83.26646
379.3834, 85.27299
379.8655, 87.27822
380.3476, 89.19637
380.8297, 91.00413
381.3119, 92.48846
381.7940, 93.27634
382.2761, 93.38640
382.7582, 93.67898
383.2403, 94.40225
383.7224, 95.16942
384.2046, 95.87054
384.6867, 96.43202
385.1688, 96.61812
385.6509, 96.08054
386.1330, 95.11429
386.6151, 94.47031
387.0973, 94.30504
387.5794, 93.89899
388.0615, 92.60086
388.5436, 90.85559
389.0257, 89.28668
389.5078, 88.10242
389.9900, 86.94711
390.4721, 85.51722
390.9542, 83.82811
391.4363, 82.04630
391.9184, 80.21357
392.4005, 78.31977
392.8827, 76.36506
393.3648, 74.35818
393.8469, 72.25404
394.3290, 69.99355
394.8111, 67.64574
395.2932, 65.32830
395.7754, 63.03693
396.2575, 60.82451
396.7396, 58.77019
397.2217, 56.85039
397.7038, 54.79128
398.1859, 52.22642
398.6681, 49.77937
399.1501, 47.92898
399.6323, 46.55576
400.1144, 45.24518
400.5965, 43.83841
401.0786, 42.29728
401.5607, 40.47040
402.0428, 38.03986
402.5250, 35.90684
403.0071, 34.36975
403.4892, 33.14013
403.9713, 31.92169
404.4534, 30.63997
404.9355, 29.33386
405.4177, 28.05138
405.8998, 26.82666
406.3819, 25.66041
406.8640, 24.56080
407.3461, 23.48389
407.8282, 22.32968
408.3104, 21.17703
408.7925, 20.23168
409.2746, 19.62661
409.7567, 19.27856
410.2388, 18.79388
410.7209, 18.19283
411.2031, 17.40628
411.6852, 16.23040
412.1673, 14.97846
412.6494, 13.95512
413.1315, 13.23349
413.6136, 12.65762
414.0958, 12.01654
414.5779, 11.26620
415.0600, 10.61659
415.5421, 10.08855
416.0242, 9.649750
416.5063, 9.355751
416.9885, 9.144569
417.4706, 8.881569
417.9527, 8.455750
418.4348, 7.942230
418.9169, 7.582027
419.3990, 7.445839
419.8812, 7.351803
420.3633, 7.223064
420.8454, 7.052822
421.3275, 6.866467
421.8096, 6.700394
422.2917, 6.525711
422.7739, 6.260067
423.2560, 5.902031
423.7381, 5.628613
424.2202, 5.477947
424.7023, 5.419857
425.1844, 5.456688
425.6666, 5.563274
426.1487, 5.648510
426.6308, 5.616177
427.1129, 5.566795
427.5950, 5.693645
428.0771, 6.011776
428.5593, 6.267555
429.0414, 6.338184
429.5235, 6.244282
430.0056, 6.047886
430.4877, 5.665283
430.9698, 5.371819
431.4520, 5.333538
431.9341, 5.476913
432.4162, 5.705772
432.8983, 6.017452
433.3804, 6.249924
433.8625, 6.154533
434.3447, 5.665154
434.8268, 5.421337
435.3089, 5.685268
435.7910, 5.994938
436.2731, 6.031197
436.7552, 5.840130
437.2374, 5.642857
437.7195, 5.571911
438.2016, 5.583000
438.6837, 5.509205
439.1658, 5.217094
439.6479, 5.010582
440.1301, 4.984566
440.6122, 5.011353
441.0943, 5.007160
441.5764, 4.938080
442.0585, 4.754906
442.5406, 4.368237
443.0227, 3.720585
443.5049, 3.285439
443.9870, 3.253468
444.4691, 3.241352
444.9512, 3.176769
445.4333, 3.046150
445.9154, 2.831711
446.3976, 2.518936
446.8797, 2.152439
447.3618, 1.821480
447.8439, 1.515705
448.3260, 1.277687
448.8081, 1.121174
449.2903, 1.030334
449.7724, 1.057259
450.2545, 1.175838
450.7366, 1.218754
451.2187, 0.9928670
451.7008, 0.5720060
452.1830, 0.2994880
452.6651, 0.2491230
453.1472, 0.1803630
453.6293, 7.1396001E-02
454.1114, 0.4265140
454.5935, 0.7979280
455.0757, 1.215496
455.5578, 1.549591
456.0399, 1.660820
456.5220, 1.587570
457.0041, 1.485165
457.4862, 1.374382
457.9684, 1.297894
458.4505, 1.339073
458.9326, 1.496540
459.4147, 1.619717
459.8968, 1.658348
460.3789, 1.668076
460.8611, 1.769787
461.3432, 1.919628
461.8253, 1.845673
462.3074, 1.321743
462.7895, 0.5047800
463.2716, 4.3979999E-02
463.7538, 0.2753680
464.2359, 0.3960230
464.7180, 0.2560310
465.2001, 4.4169999E-03
465.6822, 0.2557410
466.1643, 0.4671100
466.6465, 0.6559750
467.1286, 0.8220480
467.6107, 0.9454460
468.0928, 1.253666
468.5749, 2.149746
469.0570, 2.797024
469.5392, 2.863373
470.0213, 2.563553
470.5034, 2.189194
470.9855, 1.862259
471.4676, 1.603954
471.9497, 1.487072
472.4319, 1.567532
472.9140, 1.544353
473.3961, 1.303238
473.8782, 1.004017
474.3603, 0.7176170
474.8424, 0.4514960
475.3246, 0.2000810
475.8067, 1.8803000E-02
476.2888, 0.2304690
476.7709, 0.5668110
477.2530, 1.084976
477.7351, 1.344093
478.2173, 0.9415700
478.6994, 0.2556530
479.1815, 9.1155998E-02
479.6636, 1.1215000E-02
480.1457, 0.1371080
480.6278, 4.8328001E-02
481.1100, 0.1537550
481.5920, 0.2258450
482.0742, 0.1141510
482.5563, 0.1357230
483.0384, 0.6553650
483.5205, 1.656612
484.0026, 2.294781
484.4847, 2.286701
484.9669, 2.245804
485.4490, 2.419788
485.9311, 2.731503
486.4132, 2.997932
486.8953, 3.153122
487.3774, 3.350040
487.8596, 3.862202
488.3417, 4.883457
488.8238, 5.699154
489.3059, 6.161449
489.7880, 6.594181
490.2701, 7.105915
490.7523, 7.715580
491.2344, 8.453831
491.7165, 9.365898
492.1986, 10.33479
492.6807, 10.95495
493.1628, 10.95481
493.6450, 11.35454
494.1271, 12.80114
494.6092, 14.40446
495.0913, 15.55013
495.5734, 16.22454
496.0555, 16.86486
496.5377, 17.73359
497.0198, 18.79367
497.5019, 19.96550
497.9840, 21.27006
498.4661, 22.58239
498.9482, 23.81077
499.4304, 25.02926
499.9125, 26.39493
500.3946, 28.02261
500.8767, 29.54578
501.3588, 30.62538
501.8409, 31.52859
502.3231, 32.75694
502.8052, 34.41113
503.2873, 36.29506
503.7694, 38.28587
504.2515, 40.40356
504.7336, 42.17499
505.2158, 43.29323
505.6979, 44.44878
506.1800, 45.94563
506.6621, 47.62197
507.1442, 49.22087
507.6263, 50.64885
508.1085, 51.96894
508.5906, 53.27165
509.0727, 54.57917
509.5548, 55.79058
510.0369, 57.14764
510.5190, 58.15874
511.0012, 58.52787
511.4833, 58.41319
511.9654, 58.12887
512.4475, 57.82626
512.9296, 57.44976
513.4117, 56.94220
513.8939, 56.33256
514.3760, 55.48001
514.8581, 54.22521
515.3402, 52.83037
515.8223, 51.50649
516.3044, 50.24067
516.7866, 48.96799
517.2687, 47.74968
517.7508, 46.46572
518.2329, 44.86944
518.7150, 42.98284
519.1971, 41.19075
519.6793, 39.69571
520.1614, 38.43759
520.6435, 37.27999
521.1256, 36.20338
521.6077, 35.12542
522.0898, 34.03477
522.5720, 32.97462
523.0541, 31.96079
523.5362, 31.00667
524.0183, 30.13046
524.5004, 29.35015
524.9825, 28.67501
525.4647, 28.13654
525.9468, 27.72703
526.4289, 27.49226
526.9110, 27.67501
527.3931, 27.85788
527.8752, 27.57180
528.3574, 26.85238
528.8395, 26.24667
529.3216, 26.30040
529.8037, 26.89611
530.2858, 27.30598
530.7679, 27.44489
531.2501, 27.59288
531.7322, 27.78942
532.2143, 28.09608
532.6964, 28.62550
533.1785, 29.42041
533.6606, 30.24678
534.1428, 30.92631
534.6249, 31.52544
535.1070, 32.19210
535.5891, 32.96282
536.0712, 33.85163
536.5533, 34.83797
537.0355, 35.91899
537.5176, 37.15043
537.9997, 38.63099
538.4818, 40.13656
538.9639, 41.63697
539.4460, 43.11168
539.9282, 44.51643
540.4103, 45.85308
540.8924, 47.21790
541.3745, 48.70617
541.8566, 50.32063
542.3387, 51.96372
542.8209, 53.58565
543.3029, 55.29032
543.7850, 57.03633
544.2672, 58.90088
544.7493, 60.98667
545.2314, 63.31470
545.7135, 65.76077
546.1956, 68.23240
546.6777, 70.72115
547.1599, 72.94847
547.6420, 74.69032
548.1241, 76.60713
548.6062, 79.36330
549.0883, 82.51168
549.5704, 85.36205
550.0526, 87.72164
550.5347, 89.91748
551.0168, 92.02291
551.4989, 94.14357
551.9810, 96.56928
552.4631, 99.36722
552.9453, 102.2202
553.4274, 104.8460
553.9095, 107.2510
554.3916, 109.5195
554.8737, 111.8379
555.3558, 113.8290
555.8380, 115.1919
556.3201, 116.2592
556.8022, 117.3985
557.2843, 118.7365
557.7664, 120.2131
558.2485, 121.8275
558.7307, 123.5799
559.2128, 124.8707
559.6949, 125.6156
560.1770, 126.0179
560.6591, 126.0305
561.1412, 125.8246
561.6234, 125.6350
562.1055, 125.5279
562.5876, 125.2564
563.0697, 124.6734
563.5518, 123.7885
564.0339, 122.5011
564.5161, 120.7119
564.9982, 118.7956
565.4803, 117.0720
565.9624, 115.4531
566.4445, 113.5388
566.9266, 111.1452
567.4088, 108.6990
567.8909, 106.3642
568.3730, 104.0852
568.8551, 101.7843
569.3372, 99.40930
569.8193, 96.81390
570.3015, 93.87471
570.7836, 90.62322
571.2657, 87.61890
571.7478, 85.07864
572.2299, 82.46586
572.7120, 79.64266
573.1942, 76.74572
573.6763, 73.89825
574.1584, 71.10206
574.6405, 68.29671
575.1226, 65.33673
575.6047, 62.31133
576.0869, 59.64859
576.5690, 57.45026
577.0511, 55.19661
577.5332, 52.51868
578.0153, 49.74354
578.4974, 47.42275
578.9796, 45.65307
579.4617, 43.93934
579.9438, 42.11038
580.4259, 40.23314
580.9080, 38.30367
581.3901, 36.36690
581.8723, 34.61192
582.3544, 33.18631
582.8365, 31.97685
583.3186, 30.58295
583.8007, 28.69566
584.2828, 27.09403
584.7650, 25.81454
585.2471, 24.77866
585.7292, 24.15901
586.2113, 23.75509
586.6934, 22.99870
587.1755, 21.43194
587.6577, 19.48747
588.1398, 18.19070
588.6219, 17.61563
589.1040, 17.20405
589.5861, 17.05896
590.0682, 16.76324
590.5504, 15.82759
591.0325, 14.35717
591.5146, 13.04131
591.9967, 12.05411
592.4788, 11.33681
592.9609, 10.99192
593.4431, 10.89623
593.9252, 10.70921
594.4073, 10.31336
594.8894, 9.731007
595.3715, 8.949799
595.8536, 7.860783
596.3358, 7.071716
596.8179, 6.745041
597.3000, 6.490963
597.7821, 6.207394
598.2642, 5.896122
598.7463, 5.564011
599.2285, 5.214508
599.7106, 4.879581
600.1927, 4.589981
600.6748, 4.344475
601.1569, 4.166706
601.6390, 4.112282
602.1212, 4.010647
602.6033, 3.690006
603.0854, 3.282333
603.5675, 3.016556
604.0496, 2.984425
604.5317, 2.895767
605.0139, 2.504845
605.4960, 2.009365
605.9781, 1.703800
606.4602, 1.616714
606.9423, 1.625439
607.4244, 1.663635
607.9066, 1.706333
608.3887, 1.635666
608.8708, 1.332569
609.3529, 1.084503
609.8350, 0.9516870
610.3171, 0.8360440
610.7993, 0.6680600
611.2814, 0.4519840
611.7635, 0.2221640
612.2456, 1.9470001E-02
612.7277, 0.2291260
613.2098, 0.2725870
613.6920, 0.1271820
614.1741, 0.1121220
614.6562, 0.4001200
615.1383, 0.7192340
615.6204, 0.7352490
616.1025, 0.5101360
616.5847, 0.4255520
617.0668, 0.6922570
617.5489, 0.9899410
618.0310, 1.163013
618.5131, 1.209381
618.9952, 1.079395
619.4774, 0.7681620
619.9595, 0.4723740
620.4416, 0.4489330
620.9237, 0.7275890
621.4058, 0.8232350
621.8879, 0.4880520
622.3701, 0.2727200
622.8522, 0.3903080
623.3343, 0.6237980
623.8164, 0.7264630
624.2985, 0.6601450
624.7806, 0.6156730
625.2628, 0.8777770
625.7448, 1.261452
626.2269, 1.171227
626.7090, 0.5469780
627.1912, 4.2144999E-02
627.6733, 7.5610001E-03
628.1554, 0.1959380
628.6375, 0.2766650
629.1196, 0.2105830
629.6017, 0.1658630
630.0839, 0.2252310
630.5660, 0.2624280
631.0481, 0.1622960
631.5302, 2.9400000E-02
632.0123, 0.1815190
632.4944, 0.2334020
632.9766, 0.2681350
633.4587, 0.4424970
633.9408, 0.7950670
634.4229, 1.093483
634.9050, 1.336323
635.3871, 1.516804
635.8693, 1.578705
636.3514, 1.600697
636.8335, 1.712212
637.3156, 1.959557
637.7977, 2.224358
638.2798, 2.399666
638.7620, 2.540173
639.2441, 2.720425
639.7262, 2.954052
640.2083, 3.340916
640.6904, 3.981213
641.1725, 4.781284
641.6547, 5.434330
642.1368, 5.879250
642.6189, 6.251553
643.1010, 6.403786
643.5831, 6.611515
644.0652, 7.080254
644.5474, 7.753471
645.0295, 8.451191
645.5116, 9.072014
645.9937, 9.693325
646.4758, 10.43235
646.9579, 11.28944
647.4401, 12.23787
647.9222, 13.27727
648.4043, 14.37955
648.8864, 15.53691
649.3685, 16.74708
649.8506, 17.97340
650.3328, 19.27495
650.8149, 20.49452
651.2970, 21.50668
651.7791, 22.43681
652.2612, 23.33363
652.7433, 24.26182
653.2255, 25.46921
653.7076, 27.18336
654.1897, 29.22364
654.6718, 30.88107
655.1539, 31.87842
655.6360, 33.14762
656.1182, 34.89327
656.6003, 36.88997
657.0824, 39.25985
657.5645, 41.80706
658.0466, 43.93620
658.5287, 45.19885
659.0109, 46.33685
659.4930, 48.23406
659.9751, 50.56303
660.4572, 52.43182
660.9393, 53.63056
661.4214, 54.40665
661.9036, 54.94951
662.3857, 55.26757
662.8678, 55.43100
663.3499, 55.66080
663.8320, 55.45337
664.3141, 54.58350
664.7963, 53.34797
665.2784, 52.03017
665.7605, 50.59488
666.2426, 48.77065
666.7247, 46.28239
667.2068, 43.49868
667.6890, 40.98306
668.1711, 38.70778
668.6532, 36.51737
669.1353, 34.42625
669.6174, 32.35047
670.0995, 30.19843
670.5817, 27.98204
671.0638, 25.94716
671.5459, 24.15240
672.0280, 22.47222
672.5101, 20.81105
672.9922, 19.27830
673.4744, 18.02877
673.9565, 17.07344
674.4386, 16.29210
674.9207, 15.60002
675.4028, 14.95672
675.8849, 14.21133
676.3671, 13.33171
676.8492, 12.53893
677.3313, 11.88447
677.8134, 11.33884
678.2955, 10.86992
678.7776, 10.45237
679.2598, 10.07999
679.7419, 9.859829
680.2240, 9.594578
680.7061, 9.070091
681.1882, 8.433023
681.6703, 7.937019
682.1525, 7.630919
682.6346, 7.387360
683.1167, 7.084923
683.5988, 6.733082
684.0809, 6.458706
684.5630, 6.394684
685.0452, 6.218290
685.5273, 5.702393
686.0094, 5.187134
686.4915, 4.895329
686.9736, 4.766193
687.4557, 4.570438
687.9379, 4.154562
688.4200, 3.760813
688.9021, 3.711016
689.3842, 3.845900
689.8663, 3.683508
690.3484, 3.143705
690.8306, 2.773651
691.3127, 3.070374
691.7948, 3.844006
692.2769, 4.138817
692.7590, 3.706497
693.2411, 3.171465
693.7233, 2.334038
694.2054, 1.621052
694.6875, 1.364889
695.1696, 1.450941
695.6517, 1.525955
696.1339, 1.465557
696.6160, 1.335449
697.0981, 1.175009
697.5802, 1.008310
698.0623, 0.9020600
698.5444, 0.8620800
699.0266, 0.8275300
699.5087, 0.7405150
699.9908, 0.6349180
700.4729, 0.6414990
700.9550, 0.8719730
701.4371, 1.045477
701.9193, 1.162987
702.4014, 1.218533
702.8835, 1.212444
703.3656, 1.140146
703.8477, 0.9578230
704.3298, 0.6331630
704.8120, 0.3402270
705.2941, 0.3525300
705.7762, 0.5995270
706.2583, 0.7198560
706.7404, 0.6632580
707.2225, 0.6166380
707.7046, 0.7115990
708.1867, 0.8693640
708.6688, 0.8877850
709.1509, 0.6789720
709.6331, 0.5700300
710.1152, 0.7095090
710.5973, 0.8302140
711.0794, 0.7263770
711.5615, 0.5023710
712.0436, 0.3552800
712.5258, 0.3562180
713.0079, 0.4353680
713.4900, 0.5428100
713.9721, 0.6655040
714.4542, 0.7252060
714.9363, 0.7145940
715.4185, 0.6718390
715.9006, 0.6231290
716.3827, 0.5511280
716.8648, 0.3957350
717.3469, 0.1231520
717.8290, 1.9699000E-02
718.3112, 6.5839998E-02
718.7933, 0.2019980
719.2754, 0.3906820
719.7575, 0.5370220
720.2396, 0.4376450
720.7217, 8.1081003E-02
721.2039, 0.2017800
721.6860, 1.8229000E-02
722.1681, 0.4871770
722.6502, 0.7516380
723.1323, 0.7660790
723.6144, 0.5988030
724.0966, 0.1569730
724.5787, 0.2864890
725.0608, 0.3604180
725.5429, 7.4483998E-02
726.0250, 9.5298998E-02
726.5071, 5.6494001E-02
726.9893, 2.0324999E-02
727.4714, 0.1334530
727.9535, 0.2170260
728.4356, 0.1681370
728.9177, 1.1040000E-03
729.3998, 0.1639370
729.8820, 0.2191720
730.3641, 0.2132320
730.8462, 0.3261570
731.3283, 0.5710850
731.8104, 0.6295470
732.2925, 0.3480780
732.7747, 8.5616998E-02
733.2568, 0.1844730
733.7389, 0.5627860
734.2210, 0.7682780
734.7031, 0.7026650
735.1852, 0.6162990
735.6674, 0.5562740
736.1495, 0.4965880
736.6316, 0.3755530
737.1137, 0.2361790
737.5958, 0.2132970
738.0779, 0.3835330
738.5601, 0.5985890
739.0422, 0.6305050
739.5243, 0.4971770
740.0064, 0.3533150
740.4885, 0.1960280
740.9706, 0.1133900
741.4528, 0.2032340
741.9349, 0.3543190
742.4170, 0.2782210
742.8991, 0.1418900
743.3812, 0.3682440
743.8633, 0.2376290
744.3455, 2.7914001E-02
744.8276, 0.1781940
745.3097, 0.3420390
745.7918, 0.4119630
746.2739, 0.3789080
746.7560, 0.3073650
747.2382, 0.2243440
747.7203, 0.1572900
748.2024, 0.2354530
748.6845, 0.4647730
749.1666, 0.5747260
749.6487, 0.4353010
750.1309, 0.2436960
750.6130, 0.2573600
751.0951, 0.4958380
751.5772, 0.5505410
752.0593, 0.1019120
752.5414, 0.1017090
753.0236, 0.4318260
753.5057, 1.041800
753.9878, 1.033228
754.4699, 0.4855370
754.9520, 1.6804000E-02
755.4341, 2.1338999E-02
755.9163, 0.1763970
756.3984, 0.4173560
756.8805, 0.6736090
757.3626, 0.8002400
757.8447, 0.7555070
758.3268, 0.6484240
758.8090, 0.5322280
759.2911, 0.4212630
759.7732, 0.3628750
760.2553, 0.3677270
760.7374, 0.4078250
761.2195, 0.5743390
761.7017, 0.6778320
762.1838, 0.5475120
762.6659, 0.3222900
763.1480, 0.2566150
763.6301, 0.4291550
764.1122, 0.5878600
764.5944, 0.4337100
765.0765, 0.2067050
765.5586, 0.3781990
766.0407, 0.8797090
766.5228, 1.218325
767.0049, 1.186897
767.4871, 0.9679950
767.9692, 0.7908360
768.4513, 0.6548350
768.9334, 0.5992490
769.4155, 0.6735310
769.8976, 0.7325610
770.3798, 0.7911470
770.8619, 0.7944850
771.3440, 0.6214690
771.8261, 0.3285220
772.3082, 0.1988140
772.7903, 0.4481960
773.2725, 0.7326450
773.7546, 0.8313310
774.2367, 0.7981590
774.7188, 0.6661640
775.2009, 0.4678230
775.6830, 0.3283690
776.1652, 0.3593880
776.6473, 0.4892810
777.1294, 0.5339830
777.6115, 0.4655760
778.0936, 0.4893510
778.5757, 0.6637440
779.0579, 0.8224370
779.5400, 0.9141900
780.0221, 0.9754350
780.5042, 1.033499
780.9863, 1.090111
781.4684, 1.105446
781.9506, 0.9393500
782.4327, 0.8320580
782.9148, 1.139639
783.3969, 1.607496
783.8790, 1.715025
784.3611, 1.349819
784.8433, 0.8814740
785.3254, 0.6509230
785.8075, 0.5766410
786.2896, 0.3889350
786.7717, 9.2680000E-02
787.2538, 4.3839000E-02
787.7360, 6.5582000E-02
788.2181, 0.2781830
788.7002, 0.5019910
789.1823, 0.7215920
789.6644, 0.8360610
790.1465, 0.7574350
790.6286, 0.7130070
791.1107, 0.7585700
791.5928, 0.8221190
792.0750, 0.8815330
792.5571, 0.9135590
793.0392, 0.8616870
793.5213, 0.6988960
794.0034, 0.5344580
794.4855, 0.4656090
794.9677, 0.4567410
795.4498, 0.4617400
795.9319, 0.4737320
796.4140, 0.4526630
796.8961, 0.3785920
797.3782, 0.2812370
797.8604, 0.1828270
798.3425, 7.4868999E-02
798.8246, 0.1756130
799.3067, 0.7248210
799.7888, 1.058596
800.2709, 0.8194220
800.7531, 0.4359970
801.2352, 0.2045350
801.7173, 0.1393240
802.1994, 0.1469140
802.6815, 0.2444800
803.1636, 0.3265150
803.6458, 0.2783550
804.1279, 0.2210670
804.6100, 0.3538380
805.0921, 0.6262840
805.5742, 0.7933960
806.0563, 0.7188110
806.5385, 0.5528810
807.0206, 0.5664460
807.5027, 0.7355160
807.9848, 0.6999400
808.4669, 0.3919680
808.9490, 0.1762940
809.4312, 0.2430520
809.9133, 0.4344440
810.3954, 0.5291160
810.8775, 0.5419330
811.3596, 0.5223980
811.8417, 0.4691730
812.3239, 0.3779510
812.8060, 0.2099970
813.2881, 2.7554000E-02
813.7702, 0.1505220
814.2523, 0.2920720
814.7344, 0.2784330
815.2166, 2.2785001E-02
815.6987, 0.3439010
816.1808, 0.3485770
816.6629, 0.1750050
817.1450, 0.1472070
817.6271, 0.2878280
818.1093, 0.4121250
818.5914, 0.4145030
819.0735, 0.3412210
819.5556, 0.2733940
820.0377, 0.2069340
820.5198, 0.1618960
821.0020, 0.1405960
821.4841, 0.1418020
821.9662, 0.2120110
822.4483, 0.2660940
822.9304, 0.1728060
823.4125, 5.5599000E-02
823.8947, 0.1831720
824.3768, 6.1647002E-02
824.8589, 4.3558002E-02
825.3410, 3.3619002E-02
825.8231, 0.1545220
826.3052, 0.1473670
826.7874, 2.2356000E-02
827.2695, 9.3681000E-02
827.7516, 0.1293070
828.2337, 0.1278930
828.7158, 0.1609860
829.1979, 0.2103790
829.6801, 0.1797560
830.1622, 5.9985999E-02
830.6443, 5.7750000E-03
831.1264, 6.2916003E-02
831.6085, 0.1791500
832.0906, 0.2027070
832.5728, 0.1245900
833.0549, 9.5210001E-03
833.5370, 0.2573220
834.0191, 0.3901500
834.5012, 0.2268890
834.9833, 8.0220001E-03
835.4655, 0.1754460
835.9476, 0.2550560
836.4297, 0.2110520
836.9118, 7.8083001E-02
837.3939, 0.3170700
837.8760, 0.3021950
838.3582, 0.1794070
838.8403, 0.1310670
839.3224, 0.1384640
839.8045, 5.4258000E-02
840.2866, 0.1919460
840.7687, 0.4575120
841.2509, 0.5445160
841.7330, 0.4752660
842.2151, 0.3583810
842.6972, 0.1919860
843.1793, 4.3758001E-02
843.6614, 6.5785997E-02
844.1436, 0.1347680
844.6257, 0.1557140
845.1078, 0.1339040
845.5899, 0.1214070
846.0720, 0.2241860
846.5541, 0.1850720
847.0363, 0.2218340
847.5184, 0.5790350
848.0005, 0.5841370
848.4826, 0.3454860
848.9647, 0.1190260
849.4468, 4.4674002E-02
849.9290, 0.1290000
850.4111, 6.5851003E-02
850.8932, 3.3495001E-02
851.3753, 4.2109001E-02
851.8574, 4.3540001E-03
852.3395, 3.5310001E-03
852.8217, 9.2867002E-02
853.3038, 0.1794240
853.7859, 0.1725900
854.2680, 0.1058350
854.7501, 7.9824001E-02
855.2322, 9.4217002E-02
855.7144, 0.1431640
856.1965, 0.2393360
856.6786, 0.2945460
857.1607, 0.2115310
857.6428, 4.7681998E-02
858.1249, 5.0329999E-03
858.6071, 0.1321410
859.0892, 0.2096790
859.5713, 0.1293280
860.0534, 0.1051880
860.5355, 0.2247580
861.0176, 0.4342990
861.4998, 0.7205200
861.9819, 1.066048
862.4640, 1.269997
862.9461, 1.173410
863.4282, 0.9956630
863.9103, 0.8138410
864.3925, 0.6829760
864.8746, 0.7122020
865.3567, 0.8797840
865.8388, 1.047274
866.3209, 1.134712
866.8030, 1.179888
867.2852, 1.205488
867.7673, 1.232327
868.2494, 1.403902
868.7315, 1.733374
869.2136, 2.030109
869.6957, 2.220871
870.1779, 2.323887
870.6600, 2.338268
871.1421, 2.260206
871.6242, 2.323034
872.1063, 2.669397
872.5884, 2.916767
873.0705, 2.904751
873.5526, 2.878817
874.0347, 3.035149
874.5168, 3.289547
874.9990, 3.422651
875.4811, 3.357315
875.9632, 3.296867
876.4453, 3.271929
876.9274, 3.315516
877.4095, 3.555140
877.8917, 3.841438
878.3738, 3.909134
878.8559, 3.713707
879.3380, 3.442213
879.8201, 3.171425
880.3022, 2.989891
880.7844, 3.124371
881.2665, 3.473204
881.7486, 3.684231
882.2307, 3.714535
882.7128, 3.630203
883.1949, 3.448824
883.6771, 3.244310
884.1592, 3.203972
884.6413, 3.367500
885.1234, 3.429571
885.6055, 3.336290
886.0876, 3.266573
886.5698, 3.299145
887.0519, 3.364237
887.5340, 3.383968
888.0161, 3.361303
888.4982, 3.344440
888.9803, 3.264984
889.4625, 3.294683
889.9446, 3.553162
890.4267, 3.845680
890.9088, 4.046307
891.3909, 4.164490
891.8730, 4.265213
892.3552, 4.381203
892.8373, 4.499281
893.3194, 4.601379
893.8015, 4.689688
894.2836, 4.733196
894.7657, 4.770550
895.2479, 4.868044
895.7300, 5.058344
896.2121, 5.364626
896.6942, 5.813889
897.1763, 6.313845
897.6584, 6.694458
898.1406, 6.958347
898.6227, 7.110167
899.1048, 7.129389
899.5869, 7.297701
900.0690, 7.761806
900.5511, 8.414188
901.0333, 9.130642
901.5154, 9.920671
901.9975, 10.49227
902.4796, 10.70093
902.9617, 10.96981
903.4438, 11.35084
903.9260, 11.83836
904.4081, 12.50379
904.8902, 13.27570
905.3723, 13.93671
905.8544, 14.41656
906.3365, 14.91760
906.8187, 15.60969
907.3008, 16.20503
907.7829, 16.37204
908.2650, 16.41473
908.7471, 16.76268
909.2292, 17.45988
909.7114, 18.24368
910.1935, 19.03077
910.6756, 19.72000
911.1577, 20.13388
911.6398, 20.41052
912.1219, 20.76805
912.6041, 21.24120
913.0862, 21.84846
913.5683, 22.59859
914.0504, 23.41711
914.5325, 24.22284
915.0146, 25.01117
915.4968, 25.77236
915.9789, 26.50663
916.4610, 27.26054
916.9431, 28.06166
917.4252, 28.82149
917.9073, 29.41305
918.3895, 29.96071
918.8716, 30.95193
919.3537, 32.66185
919.8358, 34.13163
920.3179, 35.22747
920.8000, 36.26968
921.2822, 37.36513
921.7643, 38.48104
922.2464, 39.56027
922.7285, 40.60581
923.2106, 41.71058
923.6927, 42.98381
924.1749, 44.18530
924.6570, 45.14780
925.1391, 46.09942
925.6212, 47.31317
926.1033, 48.62995
926.5854, 49.67955
927.0676, 50.34927
927.5497, 50.93618
928.0318, 51.63368
928.5139, 52.34164
928.9960, 53.00129
929.4781, 53.57392
929.9603, 54.13624
930.4424, 54.64021
930.9245, 54.78770
931.4066, 54.36670
931.8887, 53.63086
932.3708, 52.99680
932.8530, 52.39578
933.3351, 51.48186
933.8172, 50.25945
934.2993, 49.13243
934.7814, 48.27652
935.2635, 47.36448
935.7457, 46.02171
936.2278, 44.32371
936.7099, 42.73424
937.1920, 41.31041
937.6741, 39.71876
938.1563, 37.84958
938.6384, 35.99390
939.1205, 34.26193
939.6026, 32.58604
940.0847, 30.85336
940.5668, 29.02620
941.0490, 27.39517
941.5311, 26.04704
942.0132, 24.72878
942.4953, 23.42540
942.9774, 22.11910
943.4595, 20.80306
943.9417, 19.47702
944.4238, 18.11442
944.9059, 16.65667
945.3880, 15.35091
945.8701, 14.26865
946.3522, 13.37146
946.8344, 12.74019
947.3165, 12.23008
947.7986, 11.66142
948.2807, 11.01513
948.7628, 10.36790
949.2449, 9.776314
949.7271, 9.216705
950.2092, 8.586987
950.6913, 7.979820
951.1734, 7.510798
951.6555, 7.149080
952.1376, 6.786125
952.6198, 6.376860
953.1019, 5.907953
953.5840, 5.328732
954.0661, 4.749847
954.5482, 4.507912
955.0303, 4.536341
955.5124, 4.355574
955.9945, 3.898941
956.4766, 3.517712
956.9587, 3.401758
957.4409, 3.412037
957.9230, 3.344263
958.4051, 3.203455
958.8872, 3.051489
959.3693, 2.882313
959.8514, 2.699366
960.3336, 2.516977
960.8157, 2.289932
961.2978, 1.954451
961.7799, 1.574142
962.2620, 1.311642
962.7441, 1.178322
963.2263, 1.163832
963.7084, 1.473574
964.1905, 1.634644
964.6726, 1.353294
965.1547, 0.9917450
965.6368, 0.8812410
966.1190, 0.9753130
966.6011, 1.011713
967.0832, 0.9711420
967.5653, 0.8638630
968.0474, 0.6200410
968.5295, 0.3769890
969.0117, 0.1968710
969.4938, 9.3957998E-02
969.9759, 6.4828999E-02
970.4580, 0.1007440
970.9401, 0.1478440
971.4222, 0.1724510
971.9044, 0.2056690
972.3865, 0.2749460
972.8686, 0.3600750
973.3507, 0.4284920
973.8328, 0.4911560
974.3149, 0.6242280
974.7971, 0.8315410
975.2792, 0.9047030
975.7613, 0.5408380
976.2434, 0.1052930
976.7255, 0.1517560
977.2076, 0.4796870
977.6898, 0.7025950
978.1719, 0.7611960
978.6540, 0.6421660
979.1361, 0.3401240
979.6182, 5.6800999E-02
980.1003, 9.4186999E-02
980.5825, 0.3336220
981.0646, 0.3527070
981.5467, 0.1821350
982.0288, 7.2936997E-02
982.5109, 7.5549997E-02
982.9930, 0.1076340
983.4752, 0.1141570
983.9573, 0.1285800
984.4394, 0.2600000
984.9215, 0.5113450
985.4036, 0.4279770
985.8857, 8.4053002E-02
986.3679, 0.3406110
986.8500, 9.2436001E-02
987.3321, 0.2215350
987.8142, 0.2322980
988.2963, 4.7752000E-02
988.7784, 9.1760000E-03
989.2606, 0.1557480
989.7427, 0.3198030
990.2248, 0.5668870
990.7069, 0.6990240
991.1890, 0.5790710
991.6711, 0.4021950
992.1533, 0.3420830
992.6354, 0.3874440
993.1175, 0.4788550
993.5996, 0.7530590
994.0817, 0.8271730
994.5638, 0.5751400
995.0460, 0.2666320
995.5281, 0.1480730
996.0102, 0.4609240
996.4923, 0.3348540
996.9744, 0.1553730
997.4565, 0.3966390
997.9387, 7.2310999E-02
998.4208, 0.1719360
998.9029, 0.1078640
999.3850, 1.5196000E-02
999.8671, 6.9374003E-02
1000.349, 6.9201998E-02
1000.831, 1.3266000E-02
1001.313, 7.7921003E-02
1001.796, 6.3288003E-02
1002.278, 0.2415520
1002.760, 0.4731480
1003.242, 0.3313870
1003.724, 0.1153560
1004.206, 0.1290890
1004.688, 0.2804410
1005.170, 0.3577580
1005.653, 0.3052900
1006.135, 0.1631240
1006.617, 0.2339940
1007.099, 0.4546300
1007.581, 0.2438260
1008.063, 1.161783
1008.545, 1.178373
1009.027, 0.4979310
1009.509, 3.3509999E-03
1009.992, 1.9747000E-02
1010.474, 0.1067390
1010.956, 0.1079790
1011.438, 4.4663999E-02
1011.920, 1.0990000E-03
1012.402, 3.3464000E-02
1012.884, 0.1054480
1013.366, 0.2002200
1013.849, 0.2143960
1014.331, 0.1054400
1014.813, 7.2820000E-03
1015.295, 3.9021000E-02
1015.777, 0.1578980
1016.259, 0.1030450
1016.741, 8.1286997E-02
1017.223, 0.1902850
1017.705, 0.1950320
1018.188, 0.1296140
1018.670, 5.2600000E-03
1019.152, 6.7365997E-02
1019.634, 0.1219140
1020.116, 0.4782100
1020.598, 0.4856970
1021.080, 0.1606500
1021.562, 6.3865997E-02
1022.044, 0.1123580
1022.527, 5.4256000E-02
1023.009, 8.9158997E-02
1023.491, 0.2219490
1023.973, 0.1589260
1024.455, 7.8240998E-02
1024.937, 7.4845999E-02
1025.419, 0.2213270
1025.901, 0.2650990
1026.384, 0.1258030
1026.866, 0.3885900
1027.348, 0.1237550
1027.830, 0.3760850
1028.312, 0.5657230
1028.794, 0.4332490
1029.276, 0.3025380
1029.758, 0.1529900
1030.240, 7.8596003E-02
1030.723, 0.1075690
1031.205, 0.1958330
1031.687, 0.3482060
1032.169, 0.5026860
1032.651, 0.5111600
1033.133, 0.3358590
1033.615, 0.3456000
1034.097, 0.6781830
1034.579, 0.8900760
1035.062, 0.8414760
1035.544, 0.7398400
1036.026, 0.7259030
1036.508, 0.7486950
1036.990, 0.6941030
1037.472, 0.5401780
1037.954, 0.4310210
1038.436, 0.3622260
1038.919, 0.3479940
1039.401, 0.4500810
1039.883, 0.5427210
1040.365, 0.4947240
1040.847, 0.3965360
1041.329, 0.4615060
1041.811, 0.7410930
1042.293, 0.9117700
1042.776, 0.9317020
1043.258, 0.8940240
1043.740, 0.7433850
1044.222, 0.5980800
1044.704, 0.5650020
1045.186, 0.6118280
1045.668, 0.7088280
1046.150, 0.8701530
1046.632, 0.9650760
1047.115, 0.9318240
1047.597, 0.8961640
1048.079, 0.8827950
1048.561, 0.8818780
1049.043, 0.8646530
1049.525, 0.8626460
1050.007, 0.9627210
1050.489, 1.190950
1050.971, 1.310987
1051.454, 1.185020
1051.936, 1.071169
1052.418, 1.001207
1052.900, 1.010368
1053.382, 1.192356
1053.864, 1.421522
1054.346, 1.514128
1054.828, 1.449480
1055.311, 1.378731
1055.793, 1.316919
1056.275, 1.286692
1056.757, 1.335430
1057.239, 1.414406
1057.721, 1.454588
1058.203, 1.501024
1058.685, 1.669716
1059.167, 1.968105
1059.650, 2.166908
1060.132, 2.068506
1060.614, 2.025595
1061.096, 2.278828
1061.578, 2.535860
1062.060, 2.565361
1062.542, 2.446394
1063.024, 2.285288
1063.506, 2.116951
1063.989, 2.088356
1064.471, 2.335091
1064.953, 2.574884
1065.435, 2.742943
1065.917, 2.869202
1066.399, 2.933527
1066.881, 3.017193
1067.363, 3.295206
1067.846, 3.750307
1068.328, 4.034153
1068.810, 3.911852
1069.292, 3.760399
1069.774, 3.707590
1070.256, 3.729179
1070.738, 3.858191
1071.220, 4.016975
1071.703, 4.091053
1072.185, 4.092251
1072.667, 4.164137
1073.149, 4.438078
1073.631, 4.570005
1074.113, 4.250191
1074.595, 3.919640
1075.077, 3.923946
1075.559, 4.082476
1076.042, 4.146023
1076.524, 4.092342
1077.006, 4.006098
1077.488, 3.920387
1077.970, 3.841974
1078.452, 3.839375
1078.934, 3.771570
1079.416, 3.461349
1079.898, 3.082146
1080.380, 2.839371
1080.863, 2.731037
1081.345, 2.627117
1081.827, 2.467123
1082.309, 2.387634
1082.791, 2.568542
1083.273, 2.754246
1083.755, 2.764023
1084.237, 2.670113
1084.720, 2.584295
1085.202, 2.517084
1085.684, 2.347895
1086.166, 2.004883
1086.648, 1.763149
1087.130, 1.909105
1087.612, 1.974718
1088.094, 1.519144
1088.577, 1.046947
1089.059, 1.184246
1089.541, 1.635197
1090.023, 1.647243
1090.505, 1.063980
1090.987, 0.6434000
1091.469, 0.8094880
1091.951, 1.009123
1092.433, 1.010067
1092.916, 0.9487170
1093.398, 0.9398940
1093.880, 0.9421580
1094.362, 0.8492720
1094.844, 0.6587750
1095.326, 0.5397970
1095.808, 0.5291840
1096.290, 0.6242540
1096.772, 1.006571
1097.255, 1.296896
1097.737, 1.171915
1098.219, 0.8677060
1098.701, 0.7083680
1099.183, 0.7058910
1099.665, 0.6709270
1100.147, 0.5103360
1100.629, 0.4180640
1101.112, 0.5193290
1101.594, 0.6105330
1102.076, 0.5990160
1102.558, 0.5231690
1103.040, 0.4002780
1103.522, 0.2532420
1104.004, 0.1448500
1104.486, 8.0618002E-02
1104.969, 6.3703999E-02
1105.451, 9.5086999E-02
1105.933, 0.1749520
1106.415, 0.3383450
1106.897, 0.5176350
1107.379, 0.7345350
1107.861, 0.9092920
1108.343, 0.8126090
1108.825, 0.3497350
1109.307, 7.2515003E-02
1109.790, 0.1640110
1110.272, 0.2517760
1110.754, 0.2333070
1111.236, 0.2211130
1111.718, 0.2972530
1112.200, 0.4170740
1112.682, 0.5331210
1113.164, 0.6501790
1113.647, 0.6277710
1114.129, 0.3315680
1114.611, 0.1191290
1115.093, 2.1919999E-03
1115.575, 7.3830001E-03
1116.057, 0.1796090
1116.539, 0.4000170
1117.021, 0.4494460
1117.504, 0.3545800
1117.986, 0.3185420
1118.468, 0.3760800
1118.950, 0.4074020
1119.432, 0.3770140
1119.914, 0.3940870
1120.396, 0.5314520
1120.878, 0.6671120
1121.360, 0.7139800
1121.843, 0.6651440
1122.325, 0.4677980
1122.807, 5.2288000E-02
1123.289, 5.5808999E-02
1123.771, 0.2601950
1124.253, 0.4857460
1124.735, 0.5064180
1125.217, 0.4263970
1125.699, 0.2879750
1126.182, 0.1511170
1126.664, 7.1373001E-02
1127.146, 4.7433998E-02
1127.628, 0.2351930
1128.110, 0.6859510
1128.592, 0.8312780
1129.074, 0.5467530
1129.556, 0.3879110
1130.039, 0.6150360
1130.521, 0.8876710
1131.003, 0.8015650
1131.485, 0.4538760
1131.967, 0.1425170
1132.449, 0.1245270
1132.931, 0.2009720
1133.413, 8.2149997E-02
1133.896, 0.1387420
1134.378, 0.4325500
1134.860, 0.6711480
1135.342, 0.7591250
1135.824, 0.7104610
1136.306, 0.4483240
1136.788, 8.3100997E-02
1137.270, 0.1174130
1137.752, 0.4611000
1138.234, 0.6574100
1138.717, 0.6281830
1139.199, 0.4738850
1139.681, 0.2459130
1140.163, 0.1032070
1140.645, 0.2932280
1141.127, 0.5991760
1141.609, 0.6110820
1142.091, 0.4282780
1142.574, 0.1913340
1143.056, 2.4338000E-02
1143.538, 2.1578001E-02
1144.020, 0.2294460
1144.502, 0.4380420
1144.984, 0.3699460
1145.466, 0.2451420
1145.948, 0.2960760
1146.431, 0.4219650
1146.913, 0.5336070
1147.395, 0.6078380
1147.877, 0.6039620
1148.359, 0.5289800
1148.841, 0.4195520
1149.323, 0.2814180
1149.805, 0.1681730
1150.287, 7.5891003E-02
1150.770, 6.2004000E-02
1151.252, 0.2717190
1151.734, 0.4985750
1152.216, 0.5061890
1152.698, 0.3483100
1153.180, 0.1640950
1153.662, 1.5844001E-02
1154.144, 9.0245999E-02
1154.626, 1.5645999E-02
1155.109, 0.1569900
1155.591, 0.5502510
1156.073, 0.8841950
1156.555, 1.012461
1157.037, 0.9693680
1157.519, 0.7099020
1158.001, 0.3103890
1158.483, 0.1802620
1158.966, 0.5787660
1159.448, 0.7723600
1159.930, 0.5533430
1160.412, 0.3449080
1160.894, 0.2379490
1161.376, 0.2071090
1161.858, 0.2716120
1162.340, 0.3766650
1162.822, 0.3941730
1163.305, 0.3117310
1163.787, 0.2844050
1164.269, 0.3393270
1164.751, 0.3665890
1165.233, 0.3428150
1165.715, 0.3057800
1166.197, 0.2449700
1166.679, 0.2636890
1167.161, 0.5185890
1167.644, 0.9161490
1168.126, 1.072523
1168.608, 0.9825590
1169.090, 0.7820550
1169.572, 0.4711190
1170.054, 0.3027860
1170.536, 0.3485930
1171.018, 0.4660030
1171.500, 0.5655980
1171.983, 0.6213630
1172.465, 0.5808450
1172.947, 0.4665740
1173.429, 0.3179680
1173.911, 0.1650280
1174.393, 0.1410790
1174.875, 0.2309090
1175.357, 0.2765220
1175.840, 0.2317960
1176.322, 0.2491440
1176.804, 0.5032940
1177.286, 0.7698730
1177.768, 0.7212470
1178.250, 0.5441970
1178.732, 0.5094110
1179.214, 0.5620880
1179.697, 0.5532470
1180.179, 0.4744050
1180.661, 0.4240740
1181.143, 0.4501340
1181.625, 0.4540350
1182.107, 0.3727320
1182.589, 0.2424740
1183.071, 1.2579000E-02
1183.553, 0.2159940
1184.036, 0.1534820
1184.518, 6.6335998E-02
1185.000, 0.2601050
1185.482, 0.3932380
1185.964, 0.3913000
1186.446, 4.3690000E-02
1186.928, 0.1248530
1187.410, 0.1255380
1187.892, 0.3806040
1188.375, 0.5044020
1188.857, 0.5218810
1189.339, 0.4175990
1189.821, 0.2398360
1190.303, 0.1240500
1190.785, 7.7859998E-02
1191.267, 7.2417997E-02
1191.749, 0.1011450
1192.232, 0.1777040
1192.714, 0.3376240
1193.196, 0.4319550
1193.678, 0.3518390
1194.160, 0.2751690
1194.642, 0.4414840
1195.124, 0.7651060
1195.606, 0.9256270
1196.089, 0.9227700
1196.571, 0.6540010
1197.053, 0.1422770
1197.535, 5.4097999E-02
1198.017, 0.1911930
1198.499, 0.5361270
1198.981, 0.7772540
1199.463, 0.8702510
1199.945, 0.6726440
1200.427, 0.3488160
1200.910, 0.2267210
1201.392, 0.2367000
1201.874, 0.2235300
1202.356, 0.1924480
1202.838, 0.2698590
1203.320, 0.4207420
1203.802, 0.4557230
1204.284, 0.1922190
1204.767, 1.0519000E-02
1205.249, 0.2235360
1205.731, 0.5145150
1206.213, 0.5480370
1206.695, 0.4538120
1207.177, 0.3392980
1207.659, 0.2636390
1208.141, 0.3677440
1208.624, 0.6991940
1209.106, 0.8496910
1209.588, 0.5812510
1210.070, 0.3305950
1210.552, 0.1472110
1211.034, 4.9160000E-02
1211.516, 0.1074810
1211.998, 0.1996780
1212.480, 0.2265630
1212.963, 0.1888750
1213.445, 7.7321999E-02
1213.927, 0.1634180
1214.409, 0.1811080
1214.891, 9.5086999E-02
1215.373, 0.3228450
1215.855, 0.4516030
1216.337, 0.4334370
1216.819, 0.2096960
1217.302, 2.2186000E-02
1217.784, 0.2045540
1218.266, 0.5970590
1218.748, 0.6782550
1219.230, 0.5172040
1219.712, 0.4678900
1220.194, 0.5178240
1220.676, 0.4740010
1221.159, 0.3127570
1221.641, 0.1980080
1222.123, 0.2195760
1222.605, 0.2786710
1223.087, 0.2912030
1223.569, 0.2726020
1224.051, 0.1586530
1224.533, 9.0346999E-02
1225.016, 0.2629320
1225.498, 0.6157590
1225.980, 1.112415
1226.462, 1.658699
1226.944, 1.858772
1227.426, 1.457836
1227.908, 1.050634
1228.390, 0.7809720
1228.872, 0.6010230
1229.354, 0.5550330
1229.837, 0.5265560
1230.319, 0.4277900
1230.801, 0.2874950
1231.283, 0.1369190
1231.765, 2.0884000E-02
1232.247, 1.3861000E-02
1232.729, 0.2282260
1233.211, 0.4286230
1233.694, 0.5905090
1234.176, 0.6464500
1234.658, 0.5380120
1235.140, 0.4196110
1235.622, 0.3306010
1236.104, 0.2560370
1236.586, 0.2196730
1237.068, 0.2176950
1237.551, 0.3148460
1238.033, 0.4685590
1238.515, 0.4693870
1238.997, 0.3374580
1239.479, 0.2590310
1239.961, 0.2860850
1240.443, 0.3614250
1240.925, 0.4520280
1241.407, 0.5445000
1241.890, 0.7119750
1242.372, 0.8274990
1242.854, 0.7149810
1243.336, 0.5224480
1243.818, 0.4148980
1244.300, 0.3914110
1244.782, 0.4260350
1245.264, 0.4988560
1245.746, 0.5194070
1246.229, 0.4209370
1246.711, 0.3189180
1247.193, 0.2182880
1247.675, 0.1402910
1248.157, 7.1211003E-02
1248.639, 4.7690999E-02
1249.121, 6.9077998E-02
1249.603, 0.1525760
1250.085, 0.4419060
1250.568, 0.9372270
1251.050, 1.082712
1251.532, 0.8350700
1252.014, 0.6755490
1252.496, 0.6346130
1252.978, 0.5916440
1253.460, 0.5069580
1253.942, 0.4439980
1254.425, 0.4469700
1254.907, 0.4673230
1255.389, 0.4546450
1255.871, 0.4208180
1256.353, 0.3571050
1256.835, 0.3109660
1257.317, 0.4040830
1257.799, 0.5845170
1258.281, 0.7628100
1258.764, 0.8632700
1259.246, 0.7257160
1259.728, 0.1249710
1260.210, 0.2811890
1260.692, 6.6800001E-03
1261.174, 0.3028390
1261.656, 0.2254790
1262.138, 9.5577002E-02
1262.620, 0.1565280
1263.103, 0.3407440
1263.585, 0.5574460
1264.067, 0.7834300
1264.549, 0.8278290
1265.031, 0.6075740
1265.513, 0.4944730
1265.995, 0.5071660
1266.477, 0.5224780
1266.960, 0.5129390
1267.442, 0.4955690
1267.924, 0.4822770
1268.406, 0.4626100
1268.888, 0.4399990
1269.370, 0.4164640
1269.852, 0.3803960
1270.334, 0.3544560
1270.817, 0.4171540
1271.299, 0.5287250
1271.781, 0.5351660
1272.263, 0.4644580
1272.745, 0.4641630
1273.227, 0.8305970
1273.709, 1.088127
1274.191, 0.8959810
1274.673, 0.6809810
1275.156, 0.6839100
1275.638, 0.6787190
1276.120, 0.4372860
1276.602, 0.1674860
1277.084, 0.1281280
1277.566, 0.2589130
1278.048, 0.3470900
1278.530, 0.3969170
1279.012, 0.4093280
1279.495, 0.3745310
1279.977, 0.3535350
1280.459, 0.3644390
1280.941, 0.2984750
1281.423, 0.1059300
1281.905, 1.2888000E-02
1282.387, 7.7157997E-02
1282.869, 0.2557490
1283.352, 0.2804740
1283.834, 6.4958997E-02
1284.316, 3.1335998E-02
1284.798, 0.0000000E+00
##END=



