##NAMES=Jeremejevite
##RRUFFID=R060533
##IDEAL CHEMISTRY=Al_6_(BO_3_)_5_F_3_
##LOCALITY=Erongo Mountains, Nambia
##OWNER=RRUFF
##SOURCE=Gemological Institute of America
##DESCRIPTION=Pale blue fragments of hexagonal prisms
##STATUS=The identification of this mineral has been confirmed by X-ray diffraction and chemical analysis
##URL=rruff.info/R060533
##MEASURED CHEMISTRY=Al_6.00_(BO_3_)_5_(F_2.22_(OH)_0.78_)_3.00_  ; B and H not measured but estimated by difference and charge balance
89.78320, 0.0000000E+00
90.26532, 0.9577640
90.74744, 5.261658
91.22955, 11.05847
91.71167, 20.61206
92.19379, 41.54352
92.67590, 71.29712
93.15802, 94.09607
93.64014, 94.65631
94.12225, 80.01373
94.60437, 68.60352
95.08649, 64.53259
95.56860, 64.02185
96.05072, 63.27228
96.53284, 65.46130
97.01495, 69.53870
97.49707, 68.47113
97.97919, 63.17804
98.46130, 52.17133
98.94342, 41.49847
99.42554, 35.56519
99.90765, 33.27527
100.3898, 36.02350
100.8719, 39.83862
101.3540, 38.87183
101.8361, 29.82428
102.3182, 19.87799
102.8004, 11.78168
103.2825, 5.607361
103.7646, 1.138428
104.2467, 1.337097
104.7288, 2.356873
105.2109, 3.400208
105.6931, 6.383057
106.1752, 6.728027
106.6573, 2.312561
107.1394, 8.776428
107.6215, 21.24030
108.1036, 39.59869
108.5858, 61.07654
109.0679, 69.53076
109.5500, 54.75897
110.0321, 35.00464
110.5142, 20.07312
110.9963, 12.43250
111.4785, 6.688599
111.9606, 2.325745
112.4427, 0.6959230
112.9248, 2.124634
113.4069, 1.107361
113.8890, 1.076721
114.3712, 3.464966
114.8533, 4.344910
115.3354, 6.452881
115.8175, 11.95697
116.2996, 21.58331
116.7817, 28.86572
117.2639, 28.29083
117.7460, 23.95715
118.2281, 21.73114
118.7102, 27.96130
119.1923, 33.65686
119.6744, 32.39032
120.1566, 22.01019
120.6387, 11.46014
121.1208, 5.977417
121.6029, 4.319519
122.0850, 4.080566
122.5671, 2.245422
123.0493, 1.951050
123.5314, 7.987488
124.0135, 24.00916
124.4956, 39.20984
124.9777, 41.96332
125.4598, 34.45001
125.9420, 24.79242
126.4241, 16.50336
126.9062, 9.841003
127.3883, 5.399902
127.8704, 3.594116
128.3525, 3.687927
128.8347, 4.802307
129.3168, 6.939270
129.7989, 9.864624
130.2810, 14.21002
130.7631, 19.43402
131.2452, 23.60547
131.7274, 26.45892
132.2095, 27.84625
132.6916, 26.92639
133.1737, 23.48138
133.6558, 19.25659
134.1379, 15.89459
134.6201, 13.38837
135.1022, 10.79456
135.5843, 7.620239
136.0664, 4.044617
136.5485, 1.551819
137.0306, 0.2932130
137.5128, 0.2382200
137.9949, 1.021362
138.4770, 2.445068
138.9591, 2.090515
139.4412, 1.753723
139.9233, 9.494568
140.4055, 14.45465
140.8876, 16.48547
141.3697, 15.82751
141.8518, 12.34949
142.3339, 4.590149
142.8160, 2.703308
143.2982, 7.868713
143.7803, 10.54382
144.2624, 12.05707
144.7445, 12.01294
145.2266, 10.91541
145.7087, 10.04993
146.1909, 10.07434
146.6730, 9.445679
147.1551, 7.338501
147.6372, 1.414001
148.1193, 2.487122
148.6014, 3.614990
149.0836, 2.620483
149.5657, 1.778992
150.0478, 0.7138670
150.5299, 0.1046750
151.0120, 0.2570800
151.4941, 1.437073
151.9763, 3.012207
152.4584, 5.562927
152.9405, 8.731995
153.4226, 10.80109
153.9047, 10.32379
154.3868, 9.538757
154.8690, 9.655823
155.3511, 11.82745
155.8332, 13.81513
156.3153, 15.26605
156.7974, 16.23022
157.2795, 17.00659
157.7617, 15.73804
158.2438, 15.41370
158.7259, 18.15149
159.2080, 24.44171
159.6901, 33.77283
160.1722, 47.02271
160.6544, 63.96906
161.1365, 80.95319
161.6186, 96.47913
162.1007, 111.4551
162.5828, 127.1746
163.0649, 144.4075
163.5471, 161.8069
164.0292, 179.8147
164.5113, 198.7236
164.9934, 215.8567
165.4755, 228.3673
165.9576, 238.1141
166.4398, 247.3199
166.9219, 255.2541
167.4040, 264.1837
167.8861, 275.0522
168.3682, 287.8931
168.8503, 303.6514
169.3325, 322.6155
169.8146, 345.0324
170.2967, 370.8718
170.7788, 396.6733
171.2609, 428.3964
171.7430, 469.6681
172.2252, 520.4764
172.7073, 583.6608
173.1894, 653.2451
173.6715, 737.2015
174.1536, 849.8292
174.6357, 987.1219
175.1179, 1162.768
175.6000, 1372.021
176.0821, 1598.961
176.5642, 1934.666
177.0463, 2566.478
177.5284, 3406.635
178.0106, 4174.697
178.4927, 4923.425
178.9748, 5462.381
179.4569, 5359.337
179.9390, 4474.509
180.4211, 3329.241
180.9033, 2436.633
181.3854, 1777.754
181.8675, 1282.178
182.3496, 945.3699
182.8317, 738.6872
183.3138, 583.6533
183.7960, 479.8083
184.2781, 409.9601
184.7602, 357.3781
185.2423, 320.9660
185.7244, 295.6399
186.2065, 278.8337
186.6887, 270.5267
187.1708, 270.3376
187.6529, 278.3632
188.1350, 294.1089
188.6171, 314.8325
189.0992, 340.8837
189.5814, 378.1089
190.0635, 430.3428
190.5456, 497.8184
191.0277, 583.9278
191.5098, 702.3007
191.9919, 819.7914
192.4741, 864.5826
192.9562, 835.2286
193.4383, 766.6191
193.9204, 665.2162
194.4025, 534.0317
194.8846, 425.5927
195.3668, 347.5660
195.8489, 293.8110
196.3310, 252.2157
196.8131, 223.4424
197.2952, 202.1089
197.7773, 185.4527
198.2595, 173.6345
198.7416, 164.0466
199.2237, 156.7077
199.7058, 151.2698
200.1879, 146.7039
200.6700, 142.7428
201.1522, 140.5057
201.6343, 140.7416
202.1164, 143.4969
202.5985, 148.9268
203.0806, 157.6826
203.5627, 168.7603
204.0449, 178.7069
204.5270, 187.1486
205.0091, 195.7640
205.4912, 205.6778
205.9733, 216.8830
206.4554, 228.7927
206.9376, 241.2363
207.4197, 254.3303
207.9018, 271.7385
208.3839, 298.3030
208.8660, 316.8633
209.3481, 312.9629
209.8303, 281.5718
210.3124, 250.0576
210.7945, 219.9241
211.2766, 192.2213
211.7587, 170.3744
212.2408, 155.2405
212.7230, 144.1240
213.2051, 135.5019
213.6872, 129.8385
214.1693, 125.0552
214.6514, 121.0976
215.1335, 117.8312
215.6157, 114.8399
216.0978, 111.9546
216.5799, 109.5441
217.0620, 107.8893
217.5441, 107.2064
218.0262, 106.6849
218.5084, 106.6012
218.9905, 106.6913
219.4726, 105.3672
219.9547, 101.8293
220.4368, 98.21771
220.9189, 95.83569
221.4011, 94.65778
221.8832, 94.68079
222.3653, 95.97296
222.8474, 98.53571
223.3295, 101.9493
223.8116, 105.4250
224.2938, 110.3896
224.7759, 117.6185
225.2580, 126.6470
225.7401, 139.0700
226.2222, 155.2184
226.7043, 174.4500
227.1865, 195.7660
227.6686, 217.8925
228.1507, 243.7831
228.6328, 274.1115
229.1149, 306.0977
229.5970, 348.2639
230.0792, 398.2414
230.5613, 458.8290
231.0434, 547.0450
231.5255, 698.7142
232.0076, 824.1184
232.4897, 871.8866
232.9719, 819.5504
233.4540, 737.7105
233.9361, 610.8537
234.4182, 457.1812
234.9003, 338.6981
235.3824, 264.5359
235.8646, 212.4179
236.3467, 172.8932
236.8288, 149.6299
237.3109, 130.9905
237.7930, 117.7282
238.2751, 108.6541
238.7573, 100.6109
239.2394, 93.27264
239.7215, 87.38525
240.2036, 83.49078
240.6857, 82.97504
241.1678, 81.22919
241.6500, 77.70709
242.1321, 73.10864
242.6142, 69.13776
243.0963, 66.03662
243.5784, 63.24591
244.0605, 60.54877
244.5427, 57.78870
245.0248, 55.44928
245.5069, 53.35077
245.9890, 51.75281
246.4711, 51.47778
246.9532, 53.72357
247.4354, 55.31055
247.9175, 54.55634
248.3996, 49.86963
248.8817, 48.19183
249.3638, 50.83966
249.8459, 55.77032
250.3281, 59.10181
250.8102, 59.75177
251.2923, 60.75128
251.7744, 63.46313
252.2565, 68.64838
252.7386, 72.24884
253.2208, 73.72668
253.7029, 74.01782
254.1850, 74.54083
254.6671, 75.31049
255.1492, 76.25061
255.6313, 77.28253
256.1135, 78.33917
256.5956, 79.76190
257.0777, 81.32837
257.5598, 83.42883
258.0419, 86.62390
258.5240, 91.04230
259.0062, 96.12036
259.4883, 101.3464
259.9704, 106.4574
260.4525, 114.2754
260.9346, 124.3402
261.4167, 137.5616
261.8989, 155.0218
262.3810, 176.6803
262.8631, 202.1681
263.3452, 230.0839
263.8273, 260.8871
264.3094, 300.0812
264.7916, 346.2679
265.2737, 403.8512
265.7558, 479.7971
266.2379, 577.8976
266.7200, 684.5596
267.2021, 817.7922
267.6843, 966.0142
268.1664, 1014.002
268.6485, 938.5206
269.1306, 811.3738
269.6127, 683.6845
270.0948, 550.1195
270.5770, 442.7767
271.0591, 373.7013
271.5412, 335.4131
272.0233, 289.8809
272.5054, 234.9468
272.9875, 180.6208
273.4697, 133.5527
273.9518, 93.31158
274.4339, 60.73785
274.9160, 36.66107
275.3981, 19.94916
275.8802, 7.493408
276.3624, 6.3110001E-02
276.8445, 5.263977
277.3266, 10.01233
277.8087, 14.16901
278.2908, 17.84009
278.7729, 20.93079
279.2551, 23.64893
279.7372, 26.76569
280.2193, 30.56293
280.7014, 32.95300
281.1835, 32.50531
281.6656, 29.25494
282.1478, 26.01709
282.6299, 23.42480
283.1120, 19.81879
283.5941, 12.37335
284.0762, 0.9521480
284.5583, 13.20239
285.0405, 29.25055
285.5226, 47.39142
286.0047, 69.25049
286.4868, 94.54932
286.9689, 124.4138
287.4510, 159.8451
287.9332, 200.8662
288.4153, 249.3725
288.8974, 312.8966
289.3795, 384.4159
289.8616, 438.6101
290.3438, 476.2305
290.8259, 490.8407
291.3080, 466.3907
291.7901, 408.3724
292.2722, 347.5433
292.7543, 290.3981
293.2365, 239.1071
293.7186, 199.9536
294.2007, 173.4274
294.6828, 155.6675
295.1649, 144.6799
295.6470, 140.0715
296.1292, 140.3416
296.6113, 145.7875
297.0934, 155.2062
297.5755, 166.6893
298.0576, 180.3907
298.5397, 197.1486
299.0219, 217.1429
299.5040, 240.8976
299.9861, 270.9866
300.4682, 311.5737
300.9503, 351.0442
301.4324, 382.1566
301.9146, 402.4432
302.3967, 402.7119
302.8788, 367.1056
303.3609, 310.8502
303.8430, 254.1158
304.3251, 198.0320
304.8073, 147.8145
305.2894, 107.5675
305.7715, 76.73090
306.2536, 52.78442
306.7357, 36.25574
307.2178, 25.34833
307.7000, 19.19757
308.1821, 17.95337
308.6642, 19.15826
309.1463, 21.13129
309.6284, 24.32440
310.1105, 29.48682
310.5927, 37.44434
311.0748, 47.05688
311.5569, 58.16052
312.0390, 70.71356
312.5211, 83.04236
313.0032, 94.14349
313.4854, 104.6987
313.9675, 115.2984
314.4496, 125.9175
314.9317, 136.8224
315.4138, 148.0279
315.8959, 159.5993
316.3781, 172.1666
316.8602, 184.4935
317.3423, 198.6774
317.8244, 216.2064
318.3065, 237.4570
318.7886, 261.9828
319.2708, 288.2505
319.7529, 317.3932
320.2350, 352.7377
320.7171, 392.5527
321.1992, 440.4526
321.6813, 497.3953
322.1635, 561.1356
322.6456, 639.3505
323.1277, 730.7637
323.6098, 837.9437
324.0919, 965.7247
324.5740, 1111.391
325.0562, 1279.338
325.5383, 1472.436
326.0204, 1693.512
326.5025, 1928.391
326.9846, 2228.446
327.4667, 2519.935
327.9489, 2728.859
328.4310, 2897.197
328.9131, 2935.609
329.3952, 2801.341
329.8773, 2490.525
330.3594, 2168.427
330.8416, 1807.929
331.3237, 1462.596
331.8058, 1171.010
332.2879, 941.5872
332.7700, 751.3208
333.2521, 600.7636
333.7343, 486.3552
334.2164, 391.8430
334.6985, 321.9940
335.1806, 265.7164
335.6627, 218.1002
336.1448, 180.7811
336.6270, 148.7062
337.1091, 122.7416
337.5912, 101.5872
338.0733, 82.51099
338.5554, 65.93494
339.0375, 51.12469
339.5197, 37.79413
340.0018, 26.01160
340.4839, 16.53564
340.9660, 9.885803
341.4481, 5.155334
341.9302, 1.404724
342.4124, 1.778931
342.8945, 4.627380
343.3766, 7.273499
343.8587, 9.614014
344.3408, 11.29102
344.8229, 12.26575
345.3051, 12.75580
345.7872, 12.90491
346.2693, 12.72021
346.7514, 12.33087
347.2335, 11.90515
347.7156, 11.08289
348.1978, 8.934937
348.6799, 5.534912
349.1620, 1.883362
349.6441, 0.5886230
350.1262, 2.871155
350.6083, 7.132385
351.0905, 13.58783
351.5726, 22.38055
352.0547, 33.72284
352.5368, 47.55365
353.0189, 63.68756
353.5010, 80.18750
353.9832, 99.80420
354.4653, 126.2977
354.9474, 160.1529
355.4295, 197.9311
355.9116, 239.5374
356.3937, 283.0437
356.8759, 324.9795
357.3580, 365.4038
357.8401, 403.2064
358.3222, 436.0318
358.8043, 464.9432
359.2864, 494.5327
359.7686, 524.9324
360.2507, 558.4807
360.7328, 596.6451
361.2149, 639.4345
361.6970, 687.8598
362.1791, 739.1764
362.6613, 796.3095
363.1434, 866.0007
363.6255, 944.5210
364.1076, 1040.733
364.5897, 1157.054
365.0718, 1287.630
365.5540, 1452.161
366.0361, 1648.659
366.5182, 1882.579
367.0003, 2160.435
367.4824, 2469.333
367.9645, 2836.122
368.4467, 3251.626
368.9288, 3706.443
369.4109, 4289.582
369.8930, 4991.696
370.3751, 5829.302
370.8572, 6847.563
371.3394, 8334.321
371.8215, 9516.005
372.3036, 10452.23
372.7857, 11039.22
373.2678, 10869.61
373.7499, 9659.259
374.2321, 8191.061
374.7142, 6779.958
375.1963, 5374.698
375.6784, 4212.277
376.1605, 3328.342
376.6426, 2652.639
377.1248, 2123.605
377.6069, 1746.437
378.0890, 1447.816
378.5711, 1218.138
379.0532, 1050.703
379.5353, 915.1382
380.0175, 812.0882
380.4996, 730.8546
380.9817, 664.8824
381.4638, 613.4373
381.9459, 568.5737
382.4280, 531.0223
382.9102, 496.6351
383.3923, 458.3112
383.8744, 416.0686
384.3565, 373.5809
384.8386, 332.3170
385.3207, 292.7350
385.8029, 257.0662
386.2850, 225.0358
386.7671, 196.8839
387.2492, 173.7573
387.7313, 154.5999
388.2134, 137.4488
388.6956, 121.0069
389.1777, 106.6699
389.6598, 96.08984
390.1419, 89.21851
390.6240, 83.83179
391.1061, 78.56665
391.5883, 74.03009
392.0704, 70.88208
392.5525, 69.81824
393.0346, 69.48505
393.5167, 68.41693
393.9988, 67.47302
394.4810, 69.01355
394.9631, 75.59705
395.4452, 83.52069
395.9273, 91.37146
396.4094, 99.61200
396.8915, 105.7604
397.3737, 110.2318
397.8558, 112.0682
398.3379, 110.0852
398.8200, 99.43787
399.3021, 89.73907
399.7842, 82.26642
400.2664, 76.96820
400.7485, 74.28571
401.2306, 75.02911
401.7127, 77.64966
402.1948, 81.28552
402.6769, 86.13928
403.1591, 91.67834
403.6412, 97.67218
404.1233, 104.4558
404.6054, 112.9435
405.0875, 122.9440
405.5696, 134.9511
406.0518, 148.9639
406.5339, 165.0249
407.0160, 185.2735
407.4981, 210.2250
407.9802, 237.0562
408.4623, 263.3359
408.9445, 289.1132
409.4266, 312.1206
409.9087, 330.8060
410.3908, 347.1268
410.8729, 364.4353
411.3550, 382.8959
411.8372, 404.3986
412.3193, 429.2925
412.8014, 458.5289
413.2835, 493.7490
413.7656, 534.7953
414.2477, 584.2032
414.7299, 642.9437
415.2120, 711.9915
415.6941, 791.9549
416.1762, 896.0677
416.6583, 1003.811
417.1404, 1107.713
417.6226, 1206.776
418.1047, 1269.650
418.5868, 1278.600
419.0689, 1243.230
419.5510, 1170.767
420.0331, 1041.947
420.5153, 904.9786
420.9974, 772.1345
421.4795, 645.1398
421.9616, 533.8956
422.4437, 441.5898
422.9258, 363.4858
423.4080, 298.7354
423.8901, 248.1953
424.3722, 205.0919
424.8543, 170.7249
425.3364, 142.7360
425.8185, 119.1371
426.3007, 101.1257
426.7828, 85.40894
427.2649, 71.60767
427.7470, 59.77313
428.2291, 50.04041
428.7112, 43.07422
429.1934, 37.17267
429.6755, 31.27051
430.1576, 25.27527
430.6397, 19.91846
431.1218, 15.30273
431.6039, 11.20197
432.0861, 6.924255
432.5682, 2.388489
433.0503, 0.8485110
433.5324, 1.812927
434.0145, 1.179504
434.4966, 1.086182
434.9788, 1.520386
435.4609, 2.683899
435.9430, 5.502747
436.4251, 9.235901
436.9072, 11.69965
437.3893, 12.27393
437.8715, 12.12347
438.3536, 12.62952
438.8357, 13.50250
439.3178, 13.93402
439.7999, 13.28796
440.2820, 12.15833
440.7642, 11.00500
441.2463, 9.855652
441.7284, 8.797241
442.2105, 8.395569
442.6926, 7.877136
443.1747, 6.469421
443.6569, 3.049500
444.1390, 0.1818240
444.6211, 2.608337
445.1032, 4.335449
445.5853, 5.604614
446.0674, 5.560120
446.5496, 5.884460
447.0317, 7.295288
447.5138, 10.17285
447.9959, 13.05096
448.4780, 16.02399
448.9601, 18.97412
449.4423, 21.76440
449.9244, 24.04932
450.4065, 26.85657
450.8886, 30.28638
451.3707, 34.34973
451.8528, 38.98334
452.3350, 43.86176
452.8171, 50.41156
453.2992, 59.86835
453.7813, 72.30566
454.2634, 84.69275
454.7455, 96.73065
455.2277, 109.7529
455.7098, 125.3726
456.1919, 143.4816
456.6740, 164.4486
457.1561, 187.7147
457.6382, 214.0131
458.1204, 245.7350
458.6025, 282.3445
459.0846, 317.8036
459.5667, 355.7606
460.0488, 387.5087
460.5309, 401.5797
461.0131, 395.5042
461.4952, 375.9062
461.9773, 340.2959
462.4594, 295.8712
462.9415, 252.6084
463.4236, 211.5422
463.9058, 175.5746
464.3879, 145.6854
464.8700, 122.1520
465.3521, 103.2880
465.8342, 90.04535
466.3163, 80.15857
466.7985, 72.42291
467.2806, 67.12122
467.7627, 63.33319
468.2448, 60.94403
468.7269, 60.12238
469.2090, 61.23956
469.6912, 65.43927
470.1733, 69.49609
470.6554, 72.52795
471.1375, 74.70020
471.6196, 77.60803
472.1017, 81.30957
472.5839, 85.58618
473.0660, 90.25769
473.5481, 95.30487
474.0302, 101.3549
474.5123, 108.4597
474.9944, 116.5827
475.4766, 125.5200
475.9587, 135.3578
476.4408, 146.6600
476.9229, 159.5403
477.4050, 173.9791
477.8871, 189.9251
478.3693, 207.3732
478.8514, 226.2032
479.3335, 245.8356
479.8156, 267.1140
480.2977, 291.2234
480.7798, 318.9095
481.2620, 347.2464
481.7441, 376.1218
482.2262, 404.1530
482.7083, 429.3022
483.1904, 455.1313
483.6725, 473.8882
484.1547, 482.7556
484.6368, 481.7423
485.1189, 472.4716
485.6010, 450.5254
486.0831, 423.7314
486.5652, 395.9586
487.0474, 365.6467
487.5295, 337.1555
488.0116, 309.9895
488.4937, 285.3414
488.9758, 264.6946
489.4579, 248.3552
489.9401, 235.0178
490.4222, 224.4722
490.9043, 216.5650
491.3864, 210.5792
491.8685, 206.7196
492.3506, 204.0070
492.8328, 202.0027
493.3149, 200.5775
493.7970, 199.3884
494.2791, 198.4859
494.7612, 197.2693
495.2433, 194.6535
495.7255, 191.2699
496.2076, 188.4760
496.6897, 186.4457
497.1718, 185.4917
497.6539, 186.1340
498.1360, 188.3051
498.6182, 191.5250
499.1003, 195.0172
499.5824, 199.6164
500.0645, 205.7607
500.5466, 213.6096
501.0287, 223.3378
501.5109, 234.9531
501.9930, 248.6533
502.4751, 264.3925
502.9572, 282.1798
503.4393, 301.7064
503.9214, 322.7437
504.4036, 345.3589
504.8857, 370.2186
505.3678, 397.6819
505.8499, 427.3522
506.3320, 458.9592
506.8141, 492.3416
507.2963, 528.3652
507.7784, 567.7446
508.2605, 609.1833
508.7426, 652.3688
509.2247, 697.2278
509.7068, 743.7482
510.1890, 793.8243
510.6711, 841.8414
511.1532, 881.3969
511.6353, 911.2258
512.1174, 924.7455
512.5995, 918.6162
513.0817, 894.6092
513.5638, 851.3718
514.0459, 789.5475
514.5280, 720.5910
515.0101, 644.7807
515.4922, 568.5628
515.9744, 498.4843
516.4565, 434.6779
516.9386, 378.3972
517.4207, 331.6617
517.9028, 292.4002
518.3849, 257.2133
518.8671, 225.2889
519.3492, 197.8318
519.8313, 175.2664
520.3134, 157.5789
520.7955, 141.7112
521.2776, 127.6664
521.7598, 115.3756
522.2419, 105.2047
522.7240, 97.47839
523.2061, 89.67426
523.6882, 81.41980
524.1703, 73.74213
524.6525, 68.36230
525.1346, 65.11212
525.6167, 61.55365
526.0988, 56.59052
526.5809, 51.53601
527.0630, 49.22742
527.5452, 49.28174
528.0273, 49.40289
528.5094, 47.69855
528.9915, 45.59363
529.4736, 44.48236
529.9557, 44.45813
530.4379, 45.67053
530.9200, 49.29102
531.4021, 53.66962
531.8842, 57.13898
532.3663, 58.23932
532.8484, 59.89569
533.3306, 63.38446
533.8127, 67.87134
534.2948, 71.51929
534.7769, 74.08569
535.2590, 75.96661
535.7411, 77.29456
536.2233, 78.06549
536.7054, 77.99139
537.1875, 77.10699
537.6696, 75.33948
538.1517, 72.61218
538.6339, 68.95117
539.1160, 64.20996
539.5981, 58.11877
540.0802, 51.75244
540.5623, 46.24097
541.0444, 41.55231
541.5266, 37.38525
542.0087, 33.78979
542.4908, 30.49310
542.9729, 27.06757
543.4550, 23.63867
543.9371, 20.59583
544.4193, 18.30914
544.9014, 16.36761
545.3835, 14.32910
545.8656, 12.12885
546.3477, 10.39172
546.8298, 9.864380
547.3120, 9.605286
547.7941, 8.840088
548.2762, 6.910950
548.7583, 5.187134
549.2404, 3.809998
549.7225, 2.679199
550.2047, 1.640991
550.6868, 0.7258910
551.1689, 0.1559450
551.6510, 0.9864500
552.1331, 1.787048
552.6152, 2.722168
553.0974, 3.824860
553.5795, 4.865753
554.0616, 5.605804
554.5437, 6.111755
555.0258, 6.968842
555.5079, 8.301727
555.9901, 9.293152
556.4722, 8.689026
556.9543, 7.158112
557.4364, 6.104492
557.9185, 6.053345
558.4006, 6.413452
558.8828, 7.205200
559.3649, 8.060211
559.8470, 8.141876
560.3291, 6.297333
560.8112, 4.365356
561.2933, 3.150879
561.7755, 2.705139
562.2576, 2.433502
562.7397, 3.013611
563.2218, 3.136627
563.7039, 2.018005
564.1860, 1.169739
564.6682, 3.416016
565.1503, 4.423096
565.6324, 4.905090
566.1145, 5.725464
566.5966, 6.922241
567.0787, 8.232727
567.5609, 9.546692
568.0430, 11.03375
568.5251, 13.09393
569.0072, 15.69775
569.4893, 18.41943
569.9714, 21.20160
570.4536, 23.91425
570.9357, 26.14130
571.4178, 27.92944
571.8999, 30.21832
572.3820, 33.71832
572.8641, 37.90741
573.3463, 42.28680
573.8284, 46.78729
574.3105, 51.52795
574.7926, 56.30249
575.2747, 61.42041
575.7568, 67.26794
576.2390, 74.86908
576.7211, 81.95496
577.2032, 88.09369
577.6853, 93.57538
578.1674, 99.10223
578.6495, 104.5306
579.1317, 110.4750
579.6138, 117.6932
580.0959, 125.8482
580.5780, 132.2202
581.0601, 136.8588
581.5422, 139.7817
582.0244, 140.6912
582.5065, 139.9351
582.9886, 138.0168
583.4707, 134.7164
583.9528, 131.7508
584.4349, 130.9083
584.9171, 131.3218
585.3992, 131.6979
585.8813, 131.1152
586.3634, 130.9102
586.8455, 131.5263
587.3276, 132.9249
587.8098, 135.0089
588.2919, 137.7214
588.7740, 141.1689
589.2561, 145.3395
589.7382, 150.2295
590.2203, 155.8633
590.7025, 162.0814
591.1846, 169.2079
591.6667, 177.7130
592.1488, 187.7558
592.6309, 197.3380
593.1130, 206.3618
593.5952, 215.2504
594.0773, 224.2518
594.5594, 233.5471
595.0415, 243.4875
595.5236, 253.9614
596.0057, 265.7310
596.4879, 279.1299
596.9700, 294.3804
597.4521, 311.9022
597.9342, 332.6613
598.4163, 355.1523
598.8984, 377.7842
599.3806, 400.9592
599.8627, 427.7422
600.3448, 459.7018
600.8269, 494.7318
601.3090, 531.8296
601.7911, 570.5580
602.2733, 613.7294
602.7554, 662.0963
603.2375, 713.7550
603.7196, 767.0084
604.2017, 822.6633
604.6838, 876.8274
605.1660, 930.3568
605.6481, 980.3320
606.1302, 1023.685
606.6123, 1059.531
607.0944, 1083.812
607.5765, 1096.049
608.0587, 1095.248
608.5408, 1078.655
609.0229, 1047.772
609.5050, 1007.476
609.9871, 956.0280
610.4692, 899.6488
610.9514, 840.9027
611.4335, 779.3289
611.9156, 719.5915
612.3977, 661.8370
612.8798, 606.7785
613.3619, 555.4664
613.8441, 507.5859
614.3262, 463.0139
614.8083, 421.7527
615.2904, 383.5195
615.7725, 348.6783
616.2546, 317.2657
616.7368, 288.4265
617.2189, 261.8585
617.7010, 237.4410
618.1831, 214.9258
618.6652, 194.4790
619.1473, 176.6559
619.6295, 163.0236
620.1116, 151.4227
620.5937, 139.7803
621.0758, 128.2781
621.5579, 117.4542
622.0400, 107.9363
622.5222, 99.15393
623.0043, 90.83490
623.4864, 82.87396
623.9685, 75.84900
624.4506, 70.42682
624.9327, 65.46271
625.4149, 60.09766
625.8970, 53.93756
626.3791, 48.79047
626.8612, 44.96698
627.3433, 41.65680
627.8254, 37.53973
628.3076, 32.72906
628.7897, 28.77716
629.2718, 26.23944
629.7539, 24.33551
630.2360, 21.85712
630.7181, 19.03632
631.2003, 16.57965
631.6824, 15.24109
632.1645, 14.05377
632.6466, 12.19513
633.1287, 9.744324
633.6108, 7.497192
634.0930, 5.543457
634.5751, 3.977844
635.0572, 2.902832
635.5393, 2.358948
636.0214, 2.076965
636.5035, 2.295593
636.9857, 2.479858
637.4678, 2.131104
637.9499, 1.129211
638.4320, 0.4503780
638.9141, 0.1727290
639.3962, 0.1778560
639.8784, 0.2097780
640.3605, 0.3608400
640.8426, 1.088623
641.3247, 2.673706
641.8068, 4.593811
642.2889, 6.248962
642.7711, 7.812439
643.2532, 9.722656
643.7353, 12.62842
644.2174, 15.46484
644.6995, 17.47693
645.1816, 18.83521
645.6638, 20.80560
646.1459, 23.40631
646.6280, 26.84961
647.1101, 31.49249
647.5922, 37.38599
648.0743, 42.72107
648.5565, 47.19171
649.0386, 51.78284
649.5207, 57.09314
650.0028, 63.08032
650.4849, 69.78656
650.9670, 77.29742
651.4492, 84.51898
651.9313, 90.33362
652.4134, 94.94324
652.8955, 98.57477
653.3776, 101.1622
653.8597, 103.2594
654.3419, 105.5475
654.8240, 107.5159
655.3061, 108.3360
655.7882, 106.2686
656.2703, 104.7827
656.7524, 104.4468
657.2346, 105.2543
657.7167, 107.2880
658.1988, 110.7009
658.6809, 114.9504
659.1630, 119.4425
659.6451, 124.5864
660.1273, 132.4859
660.6094, 143.2665
661.0915, 157.3203
661.5736, 173.6382
662.0557, 193.8729
662.5378, 221.3942
663.0200, 256.3308
663.5021, 296.9683
663.9842, 353.4447
664.4663, 408.8052
664.9484, 448.5167
665.4305, 473.2239
665.9127, 473.9844
666.3948, 435.5533
666.8769, 378.5366
667.3590, 323.2857
667.8411, 267.3884
668.3232, 219.5064
668.8054, 181.4645
669.2875, 151.0361
669.7696, 125.3827
670.2517, 104.5386
670.7338, 86.62476
671.2159, 71.31097
671.6981, 58.62738
672.1802, 49.49420
672.6623, 43.37781
673.1444, 38.03729
673.6265, 32.47827
674.1086, 27.22009
674.5908, 22.71338
675.0729, 18.93420
675.5550, 15.39771
676.0371, 11.79987
676.5192, 8.577087
677.0013, 5.766357
677.4835, 3.307556
677.9656, 1.877747
678.4477, 1.879761
678.9298, 2.164795
679.4119, 1.911011
679.8940, 1.107422
680.3762, 0.5218510
680.8583, 0.1987300
681.3404, 0.1063840
681.8225, 0.7000120
682.3046, 1.460266
682.7867, 2.175415
683.2689, 2.843140
683.7510, 3.301147
684.2331, 3.167786
684.7152, 2.835327
685.1973, 2.809143
685.6794, 3.736694
686.1616, 4.356201
686.6437, 4.264954
687.1258, 3.768982
687.6079, 3.422546
688.0900, 3.364014
688.5721, 3.124695
689.0543, 2.642334
689.5364, 1.885742
690.0185, 0.7001340
690.5006, 0.9008180
690.9827, 2.719421
691.4648, 4.717346
691.9470, 6.849609
692.4291, 9.228149
692.9112, 11.78046
693.3933, 14.09875
693.8754, 15.38580
694.3575, 16.85504
694.8397, 19.52008
695.3218, 23.58655
695.8039, 27.20685
696.2860, 30.09808
696.7681, 32.55951
697.2502, 34.87097
697.7324, 37.22498
698.2145, 38.30951
698.6966, 37.88116
699.1787, 36.88007
699.6608, 36.06561
700.1429, 35.44537
700.6251, 34.97717
701.1072, 34.61273
701.5893, 34.62054
702.0714, 35.21381
702.5535, 36.35974
703.0356, 38.00543
703.5178, 40.01740
703.9999, 42.68805
704.4820, 46.40253
704.9641, 50.75220
705.4462, 55.19849
705.9283, 60.11328
706.4105, 64.47583
706.8926, 68.15961
707.3747, 71.22711
707.8568, 74.16595
708.3389, 77.11798
708.8210, 78.33575
709.3032, 77.15936
709.7853, 73.94232
710.2674, 68.93951
710.7495, 62.38892
711.2316, 55.46942
711.7137, 48.41852
712.1959, 41.57996
712.6780, 35.10730
713.1601, 29.01929
713.6422, 23.59802
714.1243, 19.09930
714.6064, 15.04810
715.0886, 11.12085
715.5707, 7.265747
716.0528, 4.453857
716.5349, 2.884460
717.0170, 1.800659
717.4991, 0.8210450
717.9813, 6.8176001E-02
718.4634, 1.205017
718.9455, 2.619934
719.4276, 3.630127
719.9097, 3.504211
720.3918, 2.680664
720.8740, 1.769897
721.3561, 0.8941040
721.8382, 0.3197630
722.3203, 2.350403
722.8024, 4.629883
723.2845, 6.666138
723.7667, 8.156311
724.2488, 9.895447
724.7309, 12.07874
725.2130, 14.31818
725.6951, 15.93048
726.1772, 16.80115
726.6594, 18.80353
727.1415, 22.40686
727.6236, 26.58368
728.1057, 30.01556
728.5878, 32.90833
729.0699, 35.79346
729.5521, 38.62042
730.0342, 41.85876
730.5163, 45.93152
730.9984, 50.61951
731.4805, 55.52954
731.9626, 59.86664
732.4448, 65.32581
732.9269, 72.63177
733.4090, 81.14191
733.8911, 88.98730
734.3732, 96.03864
734.8553, 102.7021
735.3375, 109.2144
735.8196, 115.3209
736.3017, 120.4858
736.7838, 124.6857
737.2659, 127.7760
737.7480, 129.3742
738.2302, 130.0313
738.7123, 130.2313
739.1944, 129.9603
739.6765, 129.1055
740.1586, 126.4428
740.6407, 124.2880
741.1229, 124.2183
741.6050, 126.0952
742.0871, 126.3393
742.5692, 124.2382
743.0513, 122.2089
743.5334, 121.4364
744.0156, 121.8317
744.4977, 122.5533
744.9798, 123.6329
745.4619, 125.5552
745.9440, 128.9244
746.4261, 133.1929
746.9083, 138.0272
747.3904, 143.4186
747.8725, 148.2859
748.3546, 151.3426
748.8367, 154.1290
749.3188, 157.6757
749.8010, 162.0134
750.2831, 167.0190
750.7652, 172.7606
751.2473, 178.9970
751.7294, 185.4208
752.2115, 191.9943
752.6937, 199.8640
753.1758, 209.0466
753.6579, 220.1974
754.1400, 235.2065
754.6221, 252.2487
755.1042, 268.0485
755.5864, 281.0107
756.0685, 296.0416
756.5506, 316.7473
757.0327, 340.2720
757.5148, 363.1686
757.9969, 384.1097
758.4791, 406.6573
758.9612, 431.8569
759.4433, 457.5067
759.9254, 481.1439
760.4075, 503.0322
760.8896, 521.4323
761.3718, 536.6412
761.8539, 546.4766
762.3360, 547.8675
762.8181, 541.7469
763.3002, 529.9705
763.7823, 512.3644
764.2645, 490.3468
764.7466, 462.5815
765.2287, 431.6936
765.7108, 400.7910
766.1929, 369.5676
766.6750, 339.7432
767.1572, 311.2971
767.6393, 284.5590
768.1214, 259.7755
768.6035, 236.9921
769.0856, 216.0145
769.5677, 196.6808
770.0499, 178.9496
770.5320, 162.8617
771.0141, 148.3215
771.4962, 135.0941
771.9783, 123.2934
772.4604, 112.5007
772.9426, 102.8167
773.4247, 94.02679
773.9068, 85.74854
774.3889, 77.50616
774.8710, 70.37213
775.3531, 64.67664
775.8353, 60.11847
776.3174, 56.01538
776.7995, 52.40637
777.2816, 48.85822
777.7637, 45.17474
778.2458, 41.68024
778.7280, 38.78693
779.2101, 36.47559
779.6922, 34.73907
780.1743, 34.30261
780.6564, 33.59625
781.1385, 31.26263
781.6207, 27.82159
782.1028, 25.66882
782.5849, 25.18652
783.0670, 25.54175
783.5491, 26.71167
784.0313, 28.50494
784.5134, 30.34308
784.9955, 32.24170
785.4776, 33.63208
785.9597, 33.42609
786.4418, 33.15393
786.9240, 35.87244
787.4061, 40.79779
787.8882, 45.04382
788.3703, 47.06177
788.8524, 48.05231
789.3345, 48.33722
789.8167, 47.99048
790.2988, 47.56091
790.7809, 47.63861
791.2630, 46.54681
791.7451, 43.34058
792.2272, 38.60217
792.7094, 34.70715
793.1915, 31.65021
793.6736, 28.38708
794.1557, 23.48920
794.6378, 18.59894
795.1199, 16.23859
795.6021, 15.97571
796.0842, 15.62585
796.5663, 14.10590
797.0484, 12.44348
797.5305, 11.12335
798.0126, 10.10760
798.4948, 9.003845
798.9769, 7.956909
799.4590, 6.418152
799.9411, 3.788391
800.4232, 0.5855710
800.9053, 0.9152830
801.3875, 0.8261110
801.8696, 0.2717290
802.3517, 0.3712160
802.8338, 0.9384160
803.3159, 1.346313
803.7980, 1.559082
804.2802, 1.396790
804.7623, 0.3633420
805.2444, 0.6127930
805.7265, 1.189819
806.2086, 1.411682
806.6907, 1.698303
807.1729, 2.164551
807.6550, 2.214172
808.1371, 1.255249
808.6192, 0.1881100
809.1013, 0.6740110
809.5834, 0.3198240
810.0656, 0.2106320
810.5477, 0.6348880
811.0298, 0.9938960
811.5119, 1.524841
811.9940, 2.117798
812.4761, 1.952698
812.9583, 0.1992190
813.4404, 1.702515
813.9225, 1.491821
814.4046, 5.8044001E-02
814.8867, 0.6826170
815.3688, 0.3380740
815.8510, 0.1817020
816.3331, 0.3099370
816.8152, 0.4444580
817.2973, 1.536621
817.7794, 3.299072
818.2615, 4.590942
818.7437, 4.643982
819.2258, 4.258179
819.7079, 3.671753
820.1900, 2.919617
820.6721, 2.166870
821.1542, 1.064087
821.6364, 0.7762450
822.1185, 2.015808
822.6006, 4.181763
823.0827, 5.424927
823.5648, 5.786682
824.0469, 5.660034
824.5291, 5.039978
825.0112, 4.162537
825.4933, 2.939453
825.9754, 1.657654
826.4575, 1.143127
826.9396, 2.891174
827.4218, 4.005127
827.9039, 3.348694
828.3860, 1.560669
828.8681, 0.8605350
829.3502, 1.406860
829.8323, 2.070557
830.3145, 2.513611
830.7966, 2.796387
831.2787, 2.928772
831.7608, 2.983459
832.2429, 3.193359
832.7250, 4.045532
833.2072, 4.694336
833.6893, 4.358704
834.1714, 3.485840
834.6535, 3.325989
835.1356, 4.636292
835.6177, 5.389160
836.0999, 5.062805
836.5820, 4.144043
837.0641, 3.693848
837.5462, 3.682861
838.0283, 3.773865
838.5104, 3.870911
838.9926, 4.012573
839.4747, 4.161682
839.9568, 4.374268
840.4389, 4.831970
840.9210, 6.289978
841.4031, 7.281494
841.8853, 7.283508
842.3674, 6.711487
842.8495, 5.928406
843.3316, 4.677856
843.8137, 4.897156
844.2958, 7.327271
844.7780, 10.21588
845.2601, 10.76288
845.7422, 9.705933
846.2243, 8.791138
846.7064, 8.356262
847.1885, 8.309753
847.6707, 9.172852
848.1528, 10.30585
848.6349, 10.82892
849.1170, 9.838074
849.5991, 9.523804
850.0812, 10.25494
850.5634, 11.44281
851.0455, 12.28851
851.5276, 12.73456
852.0097, 13.05389
852.4918, 13.33307
852.9739, 13.75342
853.4561, 14.50513
853.9382, 15.18604
854.4203, 15.39075
854.9024, 14.93866
855.3845, 14.60748
855.8666, 14.57947
856.3488, 14.67737
856.8309, 14.84058
857.3130, 15.11914
857.7951, 15.03821
858.2772, 14.47803
858.7593, 14.22272
859.2415, 15.25806
859.7236, 16.95221
860.2057, 18.35480
860.6878, 19.36884
861.1699, 19.95288
861.6520, 19.92859
862.1342, 19.61163
862.6163, 19.23560
863.0984, 18.83661
863.5805, 17.78180
864.0626, 15.71698
864.5447, 14.12311
865.0269, 14.09796
865.5090, 15.18622
865.9911, 16.06592
866.4732, 16.67682
866.9553, 16.56714
867.4374, 14.74982
867.9196, 12.72778
868.4017, 11.35211
868.8838, 10.67004
869.3659, 10.86664
869.8480, 12.78003
870.3301, 14.10931
870.8123, 14.12262
871.2944, 13.10248
871.7765, 11.89374
872.2586, 10.56842
872.7407, 9.842041
873.2228, 10.45026
873.7050, 11.37000
874.1871, 11.74707
874.6692, 11.61316
875.1513, 11.03149
875.6334, 9.758362
876.1155, 8.339966
876.5977, 6.518616
877.0798, 4.842102
877.5619, 4.395020
878.0440, 5.251282
878.5261, 6.457581
879.0082, 8.037720
879.4904, 9.311951
879.9725, 9.308533
880.4546, 8.413940
880.9367, 7.170349
881.4188, 5.170593
881.9009, 4.064880
882.3831, 5.295288
882.8652, 7.181274
883.3473, 7.936890
883.8294, 7.133484
884.3115, 7.019714
884.7936, 7.860413
885.2758, 8.705322
885.7579, 8.125061
886.2400, 6.908936
886.7221, 7.060120
887.2042, 8.893616
887.6863, 10.64832
888.1685, 11.20142
888.6506, 11.40881
889.1327, 11.87659
889.6148, 12.68591
890.0969, 13.28986
890.5790, 13.52673
891.0612, 13.96033
891.5433, 15.22345
892.0254, 16.92780
892.5075, 17.51001
892.9896, 17.06934
893.4717, 16.46033
893.9539, 16.53418
894.4360, 16.31616
894.9181, 15.18298
895.4002, 13.15686
895.8823, 10.48163
896.3644, 6.030609
896.8466, 3.252075
897.3287, 3.663177
897.8108, 5.841797
898.2929, 5.848938
898.7750, 4.009705
899.2571, 2.389801
899.7393, 1.974823
900.2214, 1.781555
900.7035, 1.009216
901.1856, 0.1073910
901.6677, 1.154846
902.1498, 2.240692
902.6320, 3.008911
903.1141, 3.483185
903.5962, 3.613922
904.0783, 3.070374
904.5604, 1.944855
905.0425, 1.633331
905.5247, 2.472137
906.0068, 3.289795
906.4889, 2.534973
906.9710, 1.375214
907.4531, 1.269806
907.9352, 2.900696
908.4174, 3.810822
908.8995, 3.071838
909.3816, 2.223663
909.8637, 2.424805
910.3458, 3.672760
910.8279, 3.500916
911.3101, 1.886841
911.7922, 0.1001590
912.2743, 0.9972530
912.7564, 1.733917
913.2385, 2.439880
913.7206, 3.117737
914.2028, 3.678864
914.6849, 3.272461
915.1670, 3.792297
915.6491, 6.400543
916.1312, 10.23270
916.6133, 11.56464
917.0955, 10.35715
917.5776, 9.560547
918.0597, 10.46332
918.5418, 12.00470
919.0239, 12.81229
919.5060, 13.29501
919.9882, 14.22778
920.4703, 16.23904
920.9524, 18.24585
921.4345, 20.06961
921.9166, 21.77380
922.3987, 23.38657
922.8809, 24.89478
923.3630, 26.49551
923.8451, 28.21332
924.3272, 30.03207
924.8093, 31.80350
925.2914, 33.71472
925.7736, 36.01208
926.2557, 38.78418
926.7378, 41.70792
927.2199, 44.59378
927.7020, 47.69901
928.1841, 51.29428
928.6663, 55.36780
929.1484, 58.69397
929.6305, 61.25241
930.1126, 64.14270
930.5947, 68.51157
931.0768, 73.37424
931.5590, 77.23239
932.0411, 80.40186
932.5232, 84.02032
933.0053, 88.45557
933.4874, 93.53293
933.9695, 99.32889
934.4517, 105.6435
934.9338, 112.2210
935.4159, 119.0240
935.8980, 125.8372
936.3801, 132.4255
936.8622, 139.0828
937.3444, 145.6532
937.8265, 152.5546
938.3086, 160.5136
938.7907, 169.8245
939.2728, 179.8503
939.7549, 190.1713
940.2371, 201.3550
940.7192, 214.3329
941.2013, 229.0951
941.6834, 243.4633
942.1655, 257.2448
942.6476, 271.8401
943.1298, 287.5815
943.6119, 305.0824
944.0940, 325.5429
944.5761, 349.0887
945.0582, 373.2640
945.5403, 396.9296
946.0225, 421.8625
946.5046, 448.1194
946.9867, 476.0953
947.4688, 508.5819
947.9509, 545.0874
948.4330, 583.7681
948.9152, 623.4722
949.3973, 665.4227
949.8794, 710.8300
950.3615, 759.3463
950.8436, 810.5214
951.3257, 861.8300
951.8079, 918.6956
952.2900, 982.2956
952.7721, 1050.324
953.2542, 1120.071
953.7363, 1191.690
954.2184, 1266.492
954.7006, 1344.934
955.1827, 1425.496
955.6648, 1509.443
956.1469, 1594.678
956.6290, 1678.541
957.1111, 1761.021
957.5933, 1843.343
958.0754, 1928.211
958.5575, 2008.227
959.0396, 2080.347
959.5217, 2143.827
960.0038, 2198.641
960.4860, 2244.108
960.9681, 2276.670
961.4502, 2295.319
961.9323, 2299.196
962.4144, 2286.750
962.8965, 2258.601
963.3787, 2217.329
963.8608, 2163.352
964.3429, 2095.444
964.8250, 2011.006
965.3071, 1917.138
965.7892, 1822.565
966.2714, 1727.562
966.7535, 1630.613
967.2356, 1531.985
967.7177, 1434.146
968.1998, 1337.270
968.6819, 1243.876
969.1641, 1156.891
969.6462, 1075.304
970.1283, 998.9614
970.6104, 926.8851
971.0925, 859.8975
971.5746, 797.7390
972.0568, 740.4421
972.5389, 688.5398
973.0210, 641.0262
973.5031, 596.0953
973.9852, 552.2670
974.4673, 511.7220
974.9495, 475.2215
975.4316, 442.0500
975.9137, 412.0826
976.3958, 385.5166
976.8779, 360.6274
977.3600, 337.3293
977.8422, 315.2034
978.3243, 292.9189
978.8064, 271.5762
979.2885, 253.2379
979.7706, 238.8408
980.2527, 224.3084
980.7349, 208.1086
981.2170, 192.7032
981.6991, 179.7275
982.1812, 168.9131
982.6633, 158.8004
983.1454, 149.3801
983.6276, 140.6244
984.1097, 133.0636
984.5918, 125.6126
985.0739, 117.0670
985.5560, 108.0439
986.0381, 100.4188
986.5203, 94.98431
987.0024, 89.39297
987.4845, 83.21045
987.9666, 77.05740
988.4487, 71.80231
988.9308, 67.34399
989.4130, 63.22958
989.8951, 59.38354
990.3772, 55.95111
990.8593, 53.87387
991.3414, 51.56091
991.8235, 47.39975
992.3057, 41.20459
992.7878, 37.12628
993.2699, 35.42752
993.7520, 33.93658
994.2341, 31.37674
994.7162, 28.36163
995.1984, 25.95352
995.6805, 23.98169
996.1626, 22.05774
996.6447, 19.77863
997.1268, 17.84555
997.6089, 16.50885
998.0911, 15.45914
998.5732, 14.33408
999.0553, 13.12763
999.5374, 11.69006
1000.020, 9.980835
1000.502, 8.474579
1000.984, 8.019867
1001.466, 7.741791
1001.948, 6.588043
1002.430, 4.334656
1002.912, 2.893494
1003.394, 2.823669
1003.876, 2.708679
1004.359, 1.910004
1004.841, 0.6809080
1005.323, 0.2348630
1005.805, 0.8762510
1006.287, 1.358795
1006.769, 1.539886
1007.251, 1.838501
1007.733, 3.053345
1008.216, 4.213165
1008.698, 3.810913
1009.180, 1.085205
1009.662, 0.1984560
1010.144, 0.3342290
1010.626, 1.413788
1011.108, 2.107269
1011.590, 2.369385
1012.072, 1.792847
1012.555, 0.4434200
1013.037, 0.2276310
1013.519, 1.266449
1014.001, 2.358429
1014.483, 1.981079
1014.965, 0.6990660
1015.447, 0.7258610
1015.929, 1.877563
1016.411, 2.079254
1016.894, 0.2720340
1017.376, 1.800507
1017.858, 2.707001
1018.340, 2.930176
1018.822, 3.025726
1019.304, 2.968414
1019.786, 3.060577
1020.268, 3.309265
1020.751, 3.700714
1021.233, 4.384247
1021.715, 5.171295
1022.197, 5.465210
1022.679, 5.337952
1023.161, 5.266022
1023.643, 5.229431
1024.125, 5.583771
1024.607, 6.605469
1025.090, 8.051453
1025.572, 9.532654
1026.054, 11.07162
1026.536, 12.26273
1027.018, 12.95193
1027.500, 13.66455
1027.982, 14.79938
1028.464, 16.35895
1028.947, 18.62180
1029.429, 21.96838
1029.911, 23.90891
1030.393, 23.50616
1030.875, 23.28662
1031.357, 24.69598
1031.839, 27.20322
1032.321, 29.00302
1032.803, 30.22540
1033.286, 31.45844
1033.768, 32.45566
1034.250, 34.12704
1034.732, 37.88257
1035.214, 42.08228
1035.696, 43.99982
1036.178, 42.85217
1036.660, 44.03909
1037.143, 48.19839
1037.625, 52.92456
1038.107, 56.09863
1038.589, 58.56088
1039.071, 61.28427
1039.553, 64.34088
1040.035, 67.29135
1040.517, 69.85446
1041.000, 72.56384
1041.482, 75.38312
1041.964, 78.56781
1042.446, 82.68420
1042.928, 87.66620
1043.410, 93.20193
1043.892, 99.42639
1044.374, 105.5273
1044.856, 110.3871
1045.339, 115.2032
1045.821, 121.0482
1046.303, 127.9445
1046.785, 135.6576
1047.267, 144.2164
1047.749, 153.1447
1048.231, 161.7843
1048.713, 170.6428
1049.195, 180.1890
1049.677, 190.4942
1050.160, 201.5190
1050.642, 212.8525
1051.124, 225.6163
1051.606, 240.1260
1052.088, 255.8305
1052.570, 271.7400
1053.052, 288.1348
1053.534, 305.2006
1054.017, 322.9436
1054.499, 342.0567
1054.981, 363.0061
1055.463, 385.5259
1055.945, 409.3018
1056.427, 434.3456
1056.909, 460.6790
1057.391, 488.2395
1057.874, 517.8435
1058.356, 549.6947
1058.838, 583.8953
1059.320, 621.3387
1059.802, 660.7605
1060.284, 701.3416
1060.766, 742.2444
1061.248, 786.1635
1061.730, 833.6330
1062.213, 883.0568
1062.695, 934.1719
1063.177, 986.2712
1063.659, 1038.194
1064.141, 1089.665
1064.623, 1138.462
1065.105, 1184.885
1065.587, 1226.681
1066.070, 1265.390
1066.552, 1298.069
1067.034, 1319.490
1067.516, 1329.519
1067.998, 1330.943
1068.480, 1323.937
1068.962, 1308.590
1069.444, 1284.649
1069.927, 1252.816
1070.409, 1211.815
1070.891, 1162.172
1071.373, 1110.458
1071.855, 1056.629
1072.337, 1000.850
1072.819, 941.6695
1073.301, 882.2519
1073.783, 826.4210
1074.266, 773.8599
1074.748, 723.4078
1075.230, 674.2814
1075.712, 628.9655
1076.194, 588.7020
1076.676, 551.1031
1077.158, 514.1667
1077.640, 478.2541
1078.122, 445.8391
1078.604, 416.7199
1079.087, 389.4177
1079.569, 363.2958
1080.051, 338.6151
1080.533, 315.7649
1081.015, 294.8609
1081.497, 275.3215
1081.979, 257.3543
1082.461, 241.2169
1082.944, 227.1228
1083.426, 213.8921
1083.908, 200.3673
1084.390, 187.2510
1084.872, 175.5508
1085.354, 165.2384
1085.836, 155.5398
1086.318, 146.0470
1086.801, 137.2605
1087.283, 129.3850
1087.765, 122.1113
1088.247, 114.9558
1088.729, 107.9066
1089.211, 101.0187
1089.693, 94.19696
1090.175, 87.82471
1090.657, 82.09525
1091.140, 76.89560
1091.622, 72.00156
1092.104, 67.47864
1092.586, 64.57352
1093.068, 63.09225
1093.550, 60.76901
1094.032, 55.86963
1094.514, 50.82504
1094.997, 47.44217
1095.479, 44.97052
1095.961, 42.32452
1096.443, 39.33707
1096.925, 36.39969
1097.407, 33.39270
1097.889, 31.14130
1098.371, 31.18936
1098.854, 31.77136
1099.336, 30.56186
1099.818, 27.86856
1100.300, 25.13168
1100.782, 22.42349
1101.264, 20.09369
1101.746, 18.14166
1102.228, 16.73203
1102.710, 16.65961
1103.193, 17.21515
1103.675, 16.31061
1104.157, 13.70465
1104.639, 11.63754
1105.121, 11.49911
1105.603, 11.67487
1106.085, 11.74689
1106.567, 11.52679
1107.049, 10.11191
1107.531, 7.701111
1108.014, 6.027313
1108.496, 5.582550
1108.978, 5.742859
1109.460, 6.737335
1109.942, 7.624084
1110.424, 7.488800
1110.906, 6.287323
1111.388, 5.122040
1111.871, 3.956207
1112.353, 3.259277
1112.835, 3.670135
1113.317, 4.169495
1113.799, 3.451538
1114.281, 2.139832
1114.763, 1.233582
1115.245, 1.101074
1115.728, 0.9715270
1116.210, 0.7918400
1116.692, 0.8253480
1117.174, 1.487885
1117.656, 2.433807
1118.138, 3.010986
1118.620, 3.275055
1119.102, 3.532104
1119.584, 4.304077
1120.067, 4.422821
1120.549, 3.535828
1121.031, 2.211578
1121.513, 1.046295
1121.995, 7.8644000E-02
1122.477, 0.5199280
1122.959, 0.7508240
1123.441, 0.6495970
1123.924, 0.4115600
1124.406, 1.039032
1124.888, 0.3606570
1125.370, 1.005524
1125.852, 1.220306
1126.334, 0.3968200
1126.816, 0.1795960
1127.298, 0.2409360
1127.781, 0.1015010
1128.263, 1.321198
1128.745, 2.468048
1129.227, 2.563843
1129.709, 1.676147
1130.191, 1.500702
1130.673, 2.101013
1131.155, 2.423462
1131.637, 1.830261
1132.120, 1.175995
1132.602, 1.565491
1133.084, 2.387360
1133.566, 2.758789
1134.048, 2.491302
1134.530, 2.121216
1135.012, 1.652435
1135.494, 1.062042
1135.976, 9.7473003E-02
1136.458, 0.8432310
1136.941, 1.052246
1137.423, 0.7202150
1137.905, 0.3134770
1138.387, 0.1186220
1138.869, 0.4862370
1139.351, 0.7890630
1139.833, 0.9949650
1140.315, 1.158112
1140.798, 1.172882
1141.280, 0.6000370
1141.762, 0.4472350
1142.244, 1.193451
1142.726, 1.103180
1143.208, 0.9491880
1143.690, 0.8609010
1144.172, 0.8580020
1144.655, 0.9823300
1145.137, 1.219330
1145.619, 1.507690
1146.101, 1.842346
1146.583, 2.150330
1147.065, 2.631622
1147.547, 2.788666
1148.029, 2.176880
1148.511, 1.214417
1148.994, 1.179138
1149.476, 1.969360
1149.958, 2.713867
1150.440, 3.227936
1150.922, 3.615082
1151.404, 3.753357
1151.886, 3.960052
1152.368, 4.539825
1152.851, 5.431702
1153.333, 6.154846
1153.815, 6.704773
1154.297, 6.916351
1154.779, 6.578979
1155.261, 6.202545
1155.743, 6.163788
1156.225, 6.404572
1156.708, 7.002197
1157.190, 8.079041
1157.672, 8.426666
1158.154, 7.979553
1158.636, 7.390015
1159.118, 7.036865
1159.600, 6.730408
1160.082, 6.108154
1160.564, 5.440033
1161.047, 5.240997
1161.529, 5.986481
1162.011, 6.119171
1162.493, 5.442902
1162.975, 4.969147
1163.457, 5.723572
1163.939, 6.977783
1164.421, 7.821899
1164.903, 8.293976
1165.385, 8.556610
1165.868, 8.556030
1166.350, 8.513550
1166.832, 8.485352
1167.314, 8.289886
1167.796, 7.392609
1168.278, 6.364410
1168.760, 6.395660
1169.242, 7.378754
1169.725, 8.210449
1170.207, 8.815186
1170.689, 8.738983
1171.171, 7.567963
1171.653, 6.357788
1172.135, 6.910187
1172.617, 8.494812
1173.099, 9.598480
1173.582, 10.03912
1174.064, 9.918427
1174.546, 8.216003
1175.028, 7.395721
1175.510, 8.383820
1175.992, 10.23419
1176.474, 11.26425
1176.956, 11.55737
1177.438, 11.14313
1177.921, 9.911438
1178.403, 9.042145
1178.885, 9.303223
1179.367, 9.714355
1179.849, 9.894470
1180.331, 9.894073
1180.813, 9.870392
1181.295, 9.867859
1181.778, 10.04138
1182.260, 10.40933
1182.742, 10.74930
1183.224, 11.08939
1183.706, 11.20288
1184.188, 10.94446
1184.670, 10.37598
1185.152, 9.817017
1185.635, 9.279633
1186.117, 8.884705
1186.599, 8.753723
1187.081, 8.738251
1187.563, 8.776672
1188.045, 8.938141
1188.527, 9.339783
1189.009, 9.951080
1189.491, 10.16870
1189.974, 10.05347
1190.456, 9.948486
1190.938, 10.05817
1191.420, 10.19013
1191.902, 10.66022
1192.384, 10.84982
1192.866, 9.890381
1193.348, 7.740112
1193.830, 6.924896
1194.313, 7.387604
1194.795, 8.516388
1195.277, 11.12152
1195.759, 12.96609
1196.241, 12.24207
1196.723, 10.35309
1197.205, 8.983002
1197.687, 8.147400
1198.169, 7.515015
1198.652, 7.089661
1199.134, 7.009735
1199.616, 7.761108
1200.098, 8.465637
1200.580, 8.559296
1201.062, 8.245209
1201.544, 7.850067
1202.026, 7.377716
1202.509, 6.717255
1202.991, 5.857819
1203.473, 5.401337
1203.955, 6.021667
1204.437, 6.942871
1204.919, 7.865967
1205.401, 8.655457
1205.883, 8.842072
1206.365, 8.382782
1206.848, 8.938446
1207.330, 10.82382
1207.812, 12.38422
1208.294, 11.98575
1208.776, 11.15121
1209.258, 10.90350
1209.740, 11.07706
1210.222, 11.06949
1210.705, 10.88318
1211.187, 11.46259
1211.669, 13.07892
1212.151, 14.47437
1212.633, 14.20801
1213.115, 13.72601
1213.597, 14.15488
1214.079, 15.29892
1214.562, 16.44138
1215.044, 17.54385
1215.526, 18.30783
1216.008, 18.59882
1216.490, 18.93854
1216.972, 20.11987
1217.454, 21.26471
1217.936, 21.47079
1218.418, 20.85165
1218.901, 19.87506
1219.383, 18.58609
1219.865, 17.97943
1220.347, 18.52008
1220.829, 19.02014
1221.311, 18.55478
1221.793, 17.73477
1222.275, 16.97098
1222.757, 16.38672
1223.240, 16.43393
1223.722, 16.93530
1224.204, 16.96649
1224.686, 16.10663
1225.168, 15.08618
1225.650, 14.14999
1226.132, 13.45224
1226.614, 13.10172
1227.096, 13.08826
1227.579, 13.46802
1228.061, 14.12799
1228.543, 14.00009
1229.025, 12.19684
1229.507, 10.62790
1229.989, 10.55005
1230.471, 11.11115
1230.953, 11.73468
1231.436, 12.36621
1231.918, 12.50101
1232.400, 12.17297
1232.882, 11.64896
1233.364, 10.77844
1233.846, 10.26526
1234.328, 10.83728
1234.810, 11.55490
1235.292, 11.72324
1235.775, 11.40958
1236.257, 11.01190
1236.739, 10.62912
1237.221, 10.77328
1237.703, 12.26431
1238.185, 13.35281
1238.667, 12.89905
1239.149, 12.26416
1239.632, 12.48138
1240.114, 13.36472
1240.596, 13.84195
1241.078, 13.98410
1241.560, 14.12253
1242.042, 14.82004
1242.524, 14.83914
1243.006, 13.22742
1243.489, 11.74661
1243.971, 12.12216
1244.453, 13.78400
1244.935, 14.34390
1245.417, 14.00916
1245.899, 13.70587
1246.381, 14.01514
1246.863, 14.04654
1247.345, 13.55261
1247.828, 12.99908
1248.310, 12.92838
1248.792, 13.12286
1249.274, 12.53293
1249.756, 11.52429
1250.238, 11.44974
1250.720, 14.50726
1251.202, 15.69867
1251.684, 13.92291
1252.167, 11.99521
1252.649, 13.15097
1253.131, 15.47186
1253.613, 14.70065
1254.095, 11.78625
1254.577, 10.03748
1255.059, 11.26914
1255.541, 11.79233
1256.023, 11.26773
1256.506, 10.54626
1256.988, 10.42944
1257.470, 10.53534
1257.952, 10.28781
1258.434, 9.810974
1258.916, 9.500946
1259.398, 9.345428
1259.880, 9.569031
1260.363, 10.24292
1260.845, 10.96478
1261.327, 11.81754
1261.809, 12.18860
1262.291, 10.94620
1262.773, 8.783264
1263.255, 7.631775
1263.737, 7.843018
1264.219, 7.620422
1264.702, 6.820099
1265.184, 5.998016
1265.666, 5.612335
1266.148, 5.343781
1266.630, 5.078583
1267.112, 4.695496
1267.594, 3.799500
1268.076, 2.283783
1268.559, 2.192505
1269.041, 3.645081
1269.523, 4.861084
1270.005, 4.738678
1270.487, 3.901489
1270.969, 1.852631
1271.451, 0.1850590
1271.933, 0.2547300
1272.416, 1.457062
1272.898, 2.715302
1273.380, 3.342133
1273.862, 3.103210
1274.344, 0.5204770
1274.826, 1.223511
1275.308, 0.6837460
1275.790, 0.7466740
1276.272, 1.463562
1276.755, 1.581879
1277.237, 1.398376
1277.719, 0.9960630
1278.201, 0.7564390
1278.683, 1.598175
1279.165, 1.354584
1279.647, 0.9967350
1280.129, 3.277588
1280.611, 2.531250
1281.094, 0.1606450
1281.576, 0.7990420
1282.058, 0.5034480
1282.540, 0.5003970
1283.022, 1.491302
1283.504, 2.200287
1283.986, 2.438507
1284.468, 2.555695
1284.950, 2.718201
1285.433, 3.055969
1285.915, 4.060730
1286.397, 5.505341
1286.879, 6.515564
1287.361, 7.138794
1287.843, 7.861816
1288.325, 8.434692
1288.807, 8.270905
1289.290, 8.377106
1289.772, 8.761078
1290.254, 10.10385
1290.736, 12.09207
1291.218, 11.93384
1291.700, 11.70947
1292.182, 12.16074
1292.664, 12.21680
1293.146, 12.41391
1293.629, 12.78998
1294.111, 13.40286
1294.593, 14.87515
1295.075, 16.19736
1295.557, 16.21658
1296.039, 14.99850
1296.521, 12.58774
1297.003, 9.398956
1297.486, 6.955597
1297.968, 6.726776
1298.450, 6.546356
1298.932, 5.996368
1299.414, 5.137207
1299.896, 3.884583
1300.378, 2.398193
1300.860, 1.060455
1301.343, 3.5950001E-02
1301.825, 0.0000000E+00
##END=



