##NAMES=Kleinite
##RRUFFID=R060329
##IDEAL CHEMISTRY=Hg_2_N(Cl,SO_4_)&#183;nH_2_O
##LOCALITY=McDermott mine, Humboldt County, Nevada, USA
##OWNER=RRUFF
##SOURCE=Michael Scott
##DESCRIPTION=Light yellow hexagonal prismatic or tabular crystals, associated with orange or dark yellow platy terlinguacreekite.
##STATUS=The identification of this mineral has been confirmed by single-crystal X-ray diffraction.
##URL=rruff.info/R060329
168.5951, 0.0000000E+00
169.0772, 0.9485470
169.5593, 1.031494
170.0414, 0.6904300
170.5236, 9.6375003E-02
171.0057, 0.2894900
171.4878, 1.761780
171.9699, 4.080383
172.4520, 6.545837
172.9341, 9.299866
173.4163, 11.89777
173.8984, 14.48572
174.3805, 15.36835
174.8626, 15.41119
175.3447, 15.34747
175.8268, 15.32288
176.3090, 15.75812
176.7911, 17.44714
177.2732, 19.08875
177.7553, 18.35797
178.2374, 13.27124
178.7195, 7.694092
179.2017, 6.482178
179.6838, 8.327820
180.1659, 10.75555
180.6480, 12.14777
181.1301, 13.23907
181.6122, 14.17249
182.0944, 15.77197
182.5765, 19.00781
183.0586, 24.77008
183.5407, 33.48956
184.0228, 38.50061
184.5049, 38.42236
184.9871, 36.45172
185.4692, 33.94336
185.9513, 32.83728
186.4334, 32.55402
186.9155, 31.36426
187.3976, 29.37732
187.8798, 26.76001
188.3619, 22.08319
188.8440, 15.61945
189.3261, 11.15247
189.8082, 10.62695
190.2903, 12.89691
190.7725, 14.46509
191.2546, 15.48956
191.7367, 15.53308
192.2188, 13.43158
192.7009, 9.306641
193.1830, 5.949890
193.6652, 4.876648
194.1473, 5.609863
194.6294, 5.159912
195.1115, 3.341736
195.5936, 0.9707640
196.0757, 0.8751830
196.5579, 2.175781
197.0400, 3.563171
197.5221, 5.889832
198.0042, 8.952148
198.4863, 9.258606
198.9684, 6.062805
199.4506, 1.746460
199.9327, 0.1090700
200.4148, 1.430237
200.8969, 2.756836
201.3790, 2.760925
201.8611, 1.382874
202.3433, 0.5466310
202.8254, 0.4044800
203.3075, 0.5863650
203.7896, 0.4379270
204.2717, 9.1063999E-02
204.7538, 0.6155400
205.2360, 1.087646
205.7181, 1.562805
206.2002, 1.236633
206.6823, 0.3369750
207.1644, 2.184204
207.6465, 2.240051
208.1287, 2.6854999E-02
208.6108, 2.241882
209.0929, 3.316833
209.5750, 3.047791
210.0571, 2.665222
210.5392, 1.840759
211.0214, 1.219971
211.5035, 2.475220
211.9856, 6.371216
212.4677, 10.02509
212.9498, 11.97949
213.4319, 11.72369
213.9140, 11.96753
214.3962, 12.89203
214.8783, 14.22858
215.3604, 15.34698
215.8425, 16.17273
216.3246, 16.93304
216.8067, 17.47998
217.2889, 17.28534
217.7710, 18.85321
218.2531, 23.18152
218.7352, 28.77435
219.2173, 32.00208
219.6994, 32.00739
220.1816, 31.27124
220.6637, 30.87634
221.1458, 31.00079
221.6279, 30.83673
222.1100, 29.81635
222.5921, 28.72351
223.0743, 29.86011
223.5564, 34.52820
224.0385, 39.16754
224.5206, 41.87207
225.0027, 41.55676
225.4848, 42.42108
225.9670, 45.05194
226.4491, 49.07599
226.9312, 52.26099
227.4133, 54.28882
227.8954, 55.96808
228.3775, 57.52734
228.8597, 58.59674
229.3418, 60.56268
229.8239, 64.01123
230.3060, 68.18744
230.7881, 70.78308
231.2702, 70.65021
231.7524, 70.65814
232.2345, 72.22473
232.7166, 76.32465
233.1987, 79.65979
233.6808, 81.81525
234.1629, 83.29321
234.6451, 85.59149
235.1272, 89.56561
235.6093, 93.10370
236.0914, 95.04071
236.5735, 93.96704
237.0556, 94.63025
237.5378, 98.01746
238.0199, 102.9235
238.5020, 106.1083
238.9841, 106.2882
239.4662, 106.7055
239.9483, 108.8728
240.4305, 113.7825
240.9126, 118.0606
241.3947, 121.5719
241.8768, 124.4733
242.3589, 127.1825
242.8410, 129.9952
243.3232, 132.1272
243.8053, 132.9423
244.2874, 131.1030
244.7695, 131.2661
245.2516, 134.2294
245.7337, 138.8567
246.2159, 142.6707
246.6980, 145.5103
247.1801, 147.7692
247.6622, 149.5349
248.1443, 150.4743
248.6264, 152.0878
249.1086, 154.9846
249.5907, 158.2565
250.0728, 159.8873
250.5549, 158.9145
251.0370, 157.8544
251.5191, 157.7823
252.0013, 159.2231
252.4834, 159.9965
252.9655, 159.8110
253.4476, 159.0138
253.9297, 158.3403
254.4118, 157.9560
254.8940, 157.4763
255.3761, 156.8854
255.8582, 156.4497
256.3403, 154.6047
256.8224, 150.9396
257.3046, 146.6493
257.7867, 143.5400
258.2688, 141.7727
258.7509, 140.2275
259.2330, 138.6585
259.7151, 137.1096
260.1973, 135.8657
260.6794, 135.0576
261.1615, 134.3756
261.6436, 133.6198
262.1257, 133.2106
262.6078, 131.6271
263.0900, 127.8036
263.5721, 121.2108
264.0542, 117.3707
264.5363, 117.2811
265.0184, 118.6100
265.5005, 118.1492
265.9827, 114.9563
266.4648, 112.9693
266.9469, 113.9651
267.4290, 118.0477
267.9111, 119.5260
268.3932, 117.5925
268.8754, 114.2789
269.3575, 111.7433
269.8396, 110.0012
270.3217, 108.9199
270.8038, 108.5101
271.2859, 108.7527
271.7681, 109.5341
272.2502, 111.0338
272.7323, 112.7089
273.2144, 114.1022
273.6965, 115.2731
274.1786, 115.7872
274.6608, 115.0919
275.1429, 113.5524
275.6250, 114.1289
276.1071, 117.4559
276.5892, 121.0827
277.0714, 122.5923
277.5535, 121.7643
278.0356, 120.9931
278.5177, 120.8693
278.9998, 121.1074
279.4819, 120.0923
279.9641, 117.3489
280.4462, 115.2854
280.9283, 116.3635
281.4104, 120.7077
281.8925, 124.2602
282.3746, 126.2432
282.8568, 127.1674
283.3389, 128.3823
283.8210, 129.8915
284.3031, 131.6266
284.7852, 133.6974
285.2673, 136.0540
285.7495, 138.0535
286.2316, 139.5499
286.7137, 140.7176
287.1958, 141.8812
287.6779, 143.0321
288.1600, 144.1849
288.6422, 145.1225
289.1243, 145.9586
289.6064, 147.6509
290.0885, 150.4856
290.5706, 153.6922
291.0527, 156.0742
291.5349, 157.6724
292.0170, 158.9826
292.4991, 160.0896
292.9812, 161.1050
293.4633, 162.4839
293.9454, 164.3226
294.4276, 166.2680
294.9097, 167.8617
295.3918, 169.1462
295.8739, 170.3229
296.3560, 171.3138
296.8381, 172.2800
297.3203, 173.5151
297.8024, 174.9947
298.2845, 176.9654
298.7666, 180.3831
299.2487, 184.6017
299.7308, 187.7090
300.2130, 187.9338
300.6951, 187.0396
301.1772, 188.0254
301.6593, 190.8890
302.1414, 194.2574
302.6235, 197.0631
303.1057, 199.5308
303.5878, 202.0004
304.0699, 204.4512
304.5520, 207.1118
305.0341, 210.6148
305.5162, 214.7820
305.9984, 218.4108
306.4805, 219.4572
306.9626, 219.6773
307.4447, 221.7576
307.9268, 227.9595
308.4089, 234.4246
308.8911, 237.7078
309.3732, 238.4274
309.8553, 238.6539
310.3374, 238.6333
310.8195, 239.2687
311.3016, 241.8844
311.7838, 247.4711
312.2659, 253.1197
312.7480, 256.9464
313.2301, 259.3813
313.7122, 261.5247
314.1943, 263.2776
314.6765, 265.1476
315.1586, 267.4649
315.6407, 270.6007
316.1228, 273.7401
316.6049, 276.5175
317.0870, 279.0446
317.5692, 281.5103
318.0513, 284.3479
318.5334, 286.7049
319.0155, 288.0683
319.4976, 288.4148
319.9797, 288.3180
320.4619, 287.9344
320.9440, 287.2244
321.4261, 286.1744
321.9082, 284.4788
322.3903, 282.5726
322.8724, 280.8741
323.3546, 279.3986
323.8367, 276.6805
324.3188, 272.1734
324.8009, 266.5519
325.2830, 260.4219
325.7651, 253.1898
326.2473, 246.1750
326.7294, 239.8481
327.2115, 234.0607
327.6936, 227.5243
328.1757, 219.0057
328.6578, 210.6000
329.1400, 203.3763
329.6221, 199.8106
330.1042, 194.2573
330.5863, 185.5538
331.0684, 174.7922
331.5505, 165.3481
332.0327, 157.6986
332.5148, 150.5528
332.9969, 143.4645
333.4790, 136.8104
333.9611, 129.7033
334.4432, 121.5966
334.9254, 113.2762
335.4075, 106.4132
335.8896, 101.7893
336.3717, 96.99728
336.8538, 91.24442
337.3359, 84.35580
337.8180, 77.95016
338.3001, 71.83881
338.7823, 66.26389
339.2644, 62.05798
339.7465, 59.63071
340.2286, 56.95367
340.7107, 53.58875
341.1928, 49.54520
341.6750, 45.08582
342.1571, 39.83459
342.6392, 35.09174
343.1213, 32.02615
343.6034, 30.70236
344.0855, 30.19794
344.5677, 30.95142
345.0498, 31.85468
345.5319, 29.54974
346.0140, 23.91788
346.4961, 18.48505
346.9782, 16.02200
347.4604, 15.81607
347.9425, 14.44559
348.4246, 11.26633
348.9067, 7.872040
349.3888, 6.809479
349.8709, 7.721375
350.3531, 8.600037
350.8352, 8.295135
351.3173, 7.319366
351.7994, 6.637299
352.2815, 6.302155
352.7636, 6.019989
353.2458, 5.691986
353.7279, 5.228699
354.2100, 4.420990
354.6921, 2.722015
355.1742, 0.8456120
355.6563, 0.8024900
356.1385, 2.124756
356.6206, 2.352692
357.1027, 0.3822940
357.5848, 4.013428
358.0669, 6.077240
358.5490, 5.375122
359.0312, 3.771729
359.5133, 2.017487
359.9954, 0.2304380
360.4775, 1.260223
360.9596, 2.134949
361.4417, 2.766144
361.9239, 3.533051
362.4060, 4.749542
362.8881, 5.357300
363.3702, 4.775269
363.8523, 3.368225
364.3344, 1.694336
364.8166, 1.769409
365.2987, 3.987671
365.7808, 2.991577
366.2629, 1.886871
366.7450, 5.129181
367.2271, 4.269043
367.7093, 2.175385
368.1914, 1.368835
368.6735, 4.027313
369.1556, 5.810303
369.6377, 5.508606
370.1198, 3.451416
370.6020, 2.527710
371.0841, 4.072693
371.5662, 5.504425
372.0483, 5.282318
372.5304, 1.763916
373.0125, 0.1628110
373.4947, 0.2230530
373.9768, 2.025116
374.4589, 3.250854
374.9410, 3.959290
375.4231, 3.956635
375.9052, 2.877899
376.3874, 0.4513240
376.8695, 0.8402100
377.3516, 0.7337040
377.8337, 5.0964002E-02
378.3158, 0.8298340
378.7979, 1.683624
379.2801, 1.928833
379.7622, 1.323456
380.2443, 2.2644000E-02
380.7264, 2.032440
381.2085, 4.892303
381.6906, 7.013458
382.1728, 6.475281
382.6549, 3.707977
383.1370, 1.670380
383.6191, 0.9324950
384.1012, 1.021759
384.5833, 1.080566
385.0655, 1.140625
385.5476, 1.554474
386.0297, 2.945679
386.5118, 4.717316
386.9939, 5.866547
387.4760, 6.270050
387.9582, 6.027283
388.4403, 4.500549
388.9224, 2.391296
389.4045, 1.163147
389.8866, 2.190033
390.3687, 3.793243
390.8509, 4.458954
391.3330, 4.271881
391.8151, 4.250916
392.2972, 5.392151
392.7793, 6.656555
393.2614, 7.081329
393.7436, 5.970642
394.2257, 4.632172
394.7078, 3.057800
395.1899, 1.625183
395.6720, 1.357117
396.1541, 4.035095
396.6363, 6.725342
397.1184, 7.954590
397.6005, 7.107147
398.0826, 6.379944
398.5647, 5.731537
399.0468, 5.526703
399.5290, 6.138611
400.0111, 8.931549
400.4932, 10.97760
400.9753, 11.65475
401.4574, 10.98856
401.9395, 10.27982
402.4217, 9.440674
402.9038, 8.657440
403.3859, 7.999237
403.8680, 7.208984
404.3501, 7.208252
404.8322, 8.223816
405.3144, 9.945953
405.7965, 11.64352
406.2786, 13.40173
406.7607, 14.81513
407.2428, 15.88113
407.7249, 16.60300
408.2071, 16.22528
408.6892, 14.39227
409.1713, 12.29987
409.6534, 11.53152
410.1355, 12.00723
410.6176, 11.95602
411.0998, 10.41400
411.5819, 8.245056
412.0640, 7.611450
412.5461, 8.481171
413.0282, 9.841980
413.5103, 11.19907
413.9925, 12.40698
414.4746, 13.19305
414.9567, 13.49771
415.4388, 13.62610
415.9209, 13.88708
416.4030, 14.20657
416.8852, 14.45587
417.3673, 14.48376
417.8494, 14.45487
418.3315, 14.35892
418.8136, 14.15286
419.2957, 14.11487
419.7779, 14.60214
420.2600, 15.26779
420.7421, 15.79239
421.2242, 16.99313
421.7063, 17.29446
422.1884, 15.26990
422.6706, 11.77585
423.1527, 9.676575
423.6348, 10.56970
424.1169, 12.05914
424.5990, 13.25851
425.0811, 14.76053
425.5633, 15.34973
426.0454, 14.02145
426.5275, 11.84729
427.0096, 10.56601
427.4917, 11.37109
427.9738, 11.66641
428.4560, 10.42523
428.9381, 7.611633
429.4202, 6.185242
429.9023, 6.652283
430.3844, 8.068848
430.8665, 9.807068
431.3487, 11.94739
431.8308, 12.64197
432.3129, 11.44696
432.7950, 9.228943
433.2771, 7.526398
433.7592, 6.402924
434.2414, 6.186127
434.7235, 7.322266
435.2056, 9.352112
435.6877, 10.73276
436.1698, 11.43631
436.6519, 11.71198
437.1341, 12.15210
437.6162, 12.44943
438.0983, 11.56216
438.5804, 8.470276
439.0625, 5.127625
439.5446, 3.995117
440.0268, 4.568634
440.5089, 5.084778
440.9910, 3.914978
441.4731, 2.609344
441.9552, 2.942688
442.4373, 5.508301
442.9195, 7.414124
443.4016, 6.234741
443.8837, 3.934753
444.3658, 2.851868
444.8479, 5.418671
445.3300, 7.489624
445.8122, 7.212341
446.2943, 4.874359
446.7764, 3.445953
447.2585, 4.821716
447.7406, 6.215088
448.2227, 6.046326
448.7049, 2.626617
449.1870, 0.7420350
449.6691, 0.9335330
450.1512, 2.437286
450.6333, 4.213226
451.1154, 7.000000
451.5976, 8.349548
452.0797, 7.084503
452.5618, 3.437286
453.0439, 1.276642
453.5260, 1.024872
454.0081, 1.355957
454.4903, 1.150726
454.9724, 0.3651430
455.4545, 0.6942140
455.9366, 2.180389
456.4187, 3.516754
456.9008, 3.433014
457.3830, 2.067230
457.8651, 0.7193910
458.3472, 2.8380999E-02
458.8293, 0.1781620
459.3114, 0.2543950
459.7935, 0.1983640
460.2757, 7.1471997E-02
460.7578, 0.8657840
461.2399, 1.842499
461.7220, 2.533203
462.2041, 2.757935
462.6862, 2.694214
463.1684, 2.175903
463.6505, 1.461731
464.1326, 1.148041
464.6147, 2.535980
465.0968, 3.511597
465.5789, 2.503174
466.0611, 0.9846800
466.5432, 3.253815
467.0253, 2.570557
467.5074, 0.8789980
467.9895, 0.1945190
468.4716, 2.3406999E-02
468.9538, 8.8653997E-02
469.4359, 0.1552730
469.9180, 0.6113590
470.4001, 1.100037
470.8822, 1.855072
471.3643, 2.183716
471.8465, 1.584045
472.3286, 0.1180420
472.8107, 0.8923650
473.2928, 0.6307680
473.7749, 0.2950130
474.2570, 1.930695
474.7392, 4.262177
475.2213, 5.404816
475.7034, 4.688171
476.1855, 2.869354
476.6676, 1.278900
477.1497, 7.8247003E-02
477.6319, 1.076965
478.1140, 1.821564
478.5961, 2.111389
479.0782, 1.249573
479.5603, 0.9168400
480.0424, 2.736755
480.5246, 2.772034
481.0067, 1.662445
481.4888, 0.2266850
481.9709, 1.961792
482.4530, 3.598206
482.9352, 3.607635
483.4173, 2.448486
483.8994, 1.573639
484.3815, 1.053802
484.8636, 1.276855
485.3457, 2.780548
485.8279, 6.253571
486.3100, 8.502197
486.7921, 8.005890
487.2742, 6.833313
487.7563, 6.903442
488.2384, 9.410309
488.7206, 11.06241
489.2027, 11.14783
489.6848, 10.17712
490.1669, 9.982544
490.6490, 10.75098
491.1311, 11.73279
491.6133, 12.54227
492.0954, 13.19138
492.5775, 14.14270
493.0596, 15.46140
493.5417, 16.78662
494.0238, 17.55856
494.5060, 17.94019
494.9881, 18.64536
495.4702, 19.79065
495.9523, 21.42181
496.4344, 23.98242
496.9165, 27.18304
497.3987, 29.91388
497.8808, 31.18948
498.3629, 31.98511
498.8450, 33.11972
499.3271, 34.64825
499.8092, 36.61337
500.2914, 39.62418
500.7735, 42.77917
501.2556, 45.32932
501.7377, 46.46677
502.2198, 47.65570
502.7019, 49.24786
503.1841, 51.14484
503.6662, 53.14020
504.1483, 54.89078
504.6304, 57.13077
505.1125, 60.08408
505.5946, 63.77612
506.0768, 67.91418
506.5589, 72.93298
507.0410, 77.64618
507.5231, 80.88251
508.0052, 82.30170
508.4873, 84.82465
508.9695, 89.04318
509.4516, 93.97244
509.9337, 97.68335
510.4158, 100.2332
510.8979, 102.6410
511.3800, 105.1270
511.8622, 107.9270
512.3443, 111.6953
512.8264, 116.3389
513.3085, 121.2150
513.7906, 125.5846
514.2728, 129.9616
514.7549, 135.3569
515.2370, 142.5450
515.7191, 149.1749
516.2012, 152.7523
516.6833, 154.9670
517.1655, 158.5085
517.6476, 165.5659
518.1297, 172.7628
518.6118, 178.8649
519.0939, 183.9351
519.5760, 189.1572
520.0582, 194.5409
520.5403, 200.2325
521.0224, 206.2371
521.5045, 212.5979
521.9866, 219.2844
522.4688, 226.4117
522.9509, 233.5934
523.4330, 240.5104
523.9151, 247.1794
524.3972, 253.7997
524.8793, 260.1960
525.3615, 266.6973
525.8436, 274.4921
526.3257, 283.6238
526.8078, 292.7857
527.2899, 301.4876
527.7720, 309.7266
528.2542, 317.3186
528.7363, 324.2129
529.2184, 330.8129
529.7005, 336.8220
530.1826, 342.9232
530.6647, 350.0517
531.1469, 359.0800
531.6290, 368.0672
532.1111, 375.6540
532.5932, 382.2956
533.0753, 389.0185
533.5574, 396.1939
534.0396, 403.6667
534.5217, 411.6086
535.0038, 419.9584
535.4859, 427.8194
535.9680, 434.5761
536.4501, 441.3361
536.9323, 448.7679
537.4144, 457.3255
537.8965, 465.5025
538.3786, 473.5953
538.8607, 481.0238
539.3428, 486.4891
539.8250, 489.9005
540.3071, 492.8201
540.7892, 495.2450
541.2713, 497.8047
541.7534, 502.6295
542.2355, 509.4636
542.7177, 515.5143
543.1998, 519.0565
543.6819, 520.7314
544.1640, 521.3301
544.6461, 520.9013
545.1282, 519.9426
545.6104, 518.6357
546.0925, 517.0540
546.5746, 515.3050
547.0567, 513.7545
547.5388, 511.5633
548.0209, 508.6305
548.5031, 504.8653
548.9852, 500.0117
549.4673, 491.7267
549.9494, 484.8191
550.4315, 481.2812
550.9136, 481.0912
551.3958, 478.4550
551.8779, 472.5365
552.3600, 465.5681
552.8421, 459.1880
553.3242, 453.6758
553.8063, 445.5796
554.2885, 433.9883
554.7706, 421.9220
555.2527, 413.7926
555.7348, 409.0488
556.2169, 404.3174
556.6990, 398.9174
557.1812, 392.7033
557.6633, 385.2517
558.1454, 376.7571
558.6275, 367.9153
559.1096, 358.6452
559.5917, 349.5954
560.0739, 341.4334
560.5560, 334.1678
561.0381, 327.4257
561.5202, 321.7748
562.0023, 316.2279
562.4844, 310.1039
562.9666, 303.6119
563.4487, 295.9517
563.9308, 285.9052
564.4129, 275.2055
564.8950, 266.6464
565.3771, 261.2878
565.8593, 255.8823
566.3414, 249.7316
566.8235, 243.0013
567.3056, 235.9474
567.7877, 228.4937
568.2698, 221.5418
568.7520, 216.1061
569.2341, 211.6624
569.7162, 205.6541
570.1983, 197.9672
570.6804, 190.2604
571.1625, 184.2287
571.6447, 179.2694
572.1268, 174.5567
572.6089, 170.1907
573.0910, 165.2871
573.5731, 159.0184
574.0552, 151.8458
574.5374, 144.4201
575.0195, 135.2794
575.5016, 127.7007
575.9837, 123.7108
576.4658, 122.9739
576.9479, 120.6876
577.4301, 116.0366
577.9122, 110.7172
578.3943, 105.2205
578.8764, 99.42429
579.3585, 94.33578
579.8406, 90.05585
580.3228, 86.25055
580.8049, 82.74319
581.2870, 79.51709
581.7691, 75.96054
582.2512, 71.91299
582.7333, 67.68036
583.2155, 63.36777
583.6975, 59.22842
584.1796, 55.83798
584.6617, 54.25980
585.1439, 53.02240
585.6260, 50.57031
586.1081, 47.16800
586.5902, 44.17493
587.0723, 42.74252
587.5544, 41.51205
588.0366, 39.62601
588.5187, 36.83215
589.0008, 34.23615
589.4829, 32.15552
589.9650, 30.10580
590.4471, 27.73718
590.9293, 24.70688
591.4114, 22.22601
591.8935, 20.32733
592.3756, 19.06793
592.8577, 18.99353
593.3398, 20.20001
593.8220, 20.29819
594.3041, 17.87958
594.7862, 14.25745
595.2683, 13.03088
595.7504, 13.90097
596.2325, 14.23810
596.7147, 10.96561
597.1968, 6.895691
597.6789, 5.845398
598.1610, 8.217316
598.6431, 10.34509
599.1252, 9.832001
599.6074, 8.260986
600.0895, 6.876678
600.5716, 5.620361
601.0537, 4.936157
601.5358, 5.797302
602.0179, 7.221527
602.5001, 7.756317
602.9822, 6.626404
603.4643, 5.380249
603.9464, 4.371643
604.4285, 3.648712
604.9106, 2.743134
605.3928, 1.471924
605.8749, 0.8914490
606.3570, 2.284027
606.8391, 4.873260
607.3212, 5.452362
607.8033, 4.084747
608.2855, 2.906006
608.7676, 4.397095
609.2497, 6.574219
609.7318, 6.776031
610.2139, 4.271973
610.6960, 2.080872
611.1782, 1.363037
611.6603, 1.847900
612.1424, 3.263397
612.6245, 7.348755
613.1066, 10.10294
613.5887, 10.30399
614.0709, 9.188141
614.5530, 9.172028
615.0351, 10.76694
615.5172, 11.80084
615.9993, 11.62772
616.4814, 10.51456
616.9636, 9.583221
617.4457, 8.824127
617.9278, 8.410675
618.4099, 8.859344
618.8920, 9.723602
619.3741, 9.635101
619.8563, 8.538330
620.3384, 7.331299
620.8205, 6.694519
621.3026, 6.357422
621.7847, 5.872803
622.2668, 4.742889
622.7490, 4.562378
623.2311, 7.363037
623.7132, 11.01682
624.1953, 12.81436
624.6774, 10.49435
625.1595, 8.492981
625.6417, 7.480713
626.1238, 7.186035
626.6059, 6.671326
627.0880, 5.542419
627.5701, 4.866943
628.0522, 5.260010
628.5344, 6.498566
629.0165, 7.238556
629.4986, 7.413849
629.9807, 7.389496
630.4628, 7.624512
630.9449, 7.809082
631.4271, 7.070801
631.9092, 5.303619
632.3913, 3.863770
632.8734, 4.039734
633.3555, 4.911896
633.8376, 5.495178
634.3198, 5.430634
634.8019, 5.291870
635.2840, 5.469116
635.7661, 5.603577
636.2482, 5.110291
636.7303, 3.174530
637.2125, 1.917725
637.6946, 1.809082
638.1767, 2.499512
638.6588, 3.096069
639.1409, 3.654327
639.6230, 3.893097
640.1052, 3.581512
640.5873, 2.859741
641.0694, 2.044281
641.5515, 1.167023
642.0336, 0.5973820
642.5157, 0.8282780
642.9979, 1.370117
643.4800, 1.794281
643.9621, 2.071625
644.4442, 1.880829
644.9263, 0.5140990
645.4084, 1.062531
645.8906, 2.094269
646.3727, 2.483292
646.8548, 2.262787
647.3369, 0.9485630
647.8190, 0.6070860
648.3011, 1.435013
648.7833, 1.497284
649.2654, 0.8314510
649.7475, 0.8653110
650.2296, 2.948639
650.7117, 4.210175
651.1938, 4.689285
651.6760, 4.622192
652.1581, 3.777649
652.6402, 2.713608
653.1223, 2.457184
653.6044, 2.789246
654.0865, 2.812653
654.5687, 1.296844
655.0508, 0.1339720
655.5329, 0.1542970
656.0150, 1.375870
656.4971, 2.419281
656.9792, 2.423294
657.4614, 1.876236
657.9435, 0.8094480
658.4256, 1.419174
658.9077, 1.620850
659.3898, 1.213715
659.8719, 4.305084
660.3541, 4.279953
660.8362, 1.264832
661.3183, 0.4898380
661.8004, 0.1285250
662.2825, 0.9294280
662.7646, 0.6559300
663.2468, 0.3849790
663.7289, 0.7819820
664.2110, 0.4198000
664.6931, 1.860718
665.1752, 2.863220
665.6573, 3.368286
666.1395, 3.277756
666.6216, 1.537811
667.1037, 0.2424160
667.5858, 0.4965210
668.0679, 1.991913
668.5500, 2.575775
669.0322, 2.124939
669.5143, 0.9815980
669.9964, 1.291641
670.4785, 4.492569
670.9606, 4.757095
671.4427, 1.785950
671.9249, 1.228058
672.4070, 1.465271
672.8891, 5.0232001E-02
673.3712, 1.198715
673.8533, 1.749405
674.3354, 2.122314
674.8176, 2.559601
675.2997, 3.012085
675.7818, 3.443344
676.2639, 3.933167
676.7460, 4.238129
677.2281, 4.081619
677.7103, 3.814774
678.1924, 3.890854
678.6745, 4.545349
679.1566, 5.024002
679.6387, 5.155594
680.1208, 5.127548
680.6030, 5.395020
681.0851, 5.957245
681.5672, 6.440079
682.0493, 6.882294
682.5314, 6.994507
683.0135, 5.593124
683.4957, 3.210098
683.9778, 2.016388
684.4599, 4.726425
684.9420, 7.775452
685.4241, 8.253738
685.9063, 6.311462
686.3884, 5.382416
686.8705, 7.343704
687.3526, 9.638016
687.8347, 11.21671
688.3168, 12.03604
688.7990, 12.39584
689.2811, 12.24526
689.7632, 11.76062
690.2453, 10.72961
690.7274, 9.260681
691.2095, 9.211594
691.6917, 10.88225
692.1738, 12.61868
692.6559, 12.07755
693.1380, 10.54016
693.6201, 10.32306
694.1022, 12.39865
694.5844, 14.59689
695.0665, 16.21431
695.5486, 17.01891
696.0307, 16.71155
696.5128, 12.86159
696.9949, 11.00307
697.4771, 12.74127
697.9592, 16.26732
698.4413, 17.89641
698.9234, 17.17258
699.4055, 16.32401
699.8876, 15.77351
700.3698, 15.61787
700.8519, 16.50494
701.3340, 18.22641
701.8161, 19.36264
702.2982, 18.49924
702.7803, 17.12277
703.2625, 16.75935
703.7446, 17.29695
704.2267, 18.20178
704.7088, 20.18480
705.1909, 21.74083
705.6730, 21.65788
706.1552, 19.66382
706.6373, 18.78333
707.1194, 19.64241
707.6015, 20.72115
708.0836, 21.18341
708.5657, 21.04875
709.0479, 20.56659
709.5300, 19.69490
710.0121, 18.97954
710.4942, 19.16168
710.9763, 19.77084
711.4584, 19.64580
711.9406, 18.55905
712.4227, 17.65904
712.9048, 17.92548
713.3869, 18.58716
713.8690, 18.79640
714.3511, 18.01686
714.8333, 17.58362
715.3154, 18.04495
715.7975, 18.90256
716.2796, 19.68381
716.7617, 20.31354
717.2438, 20.51338
717.7260, 20.12926
718.2081, 19.59811
718.6902, 19.56516
719.1723, 19.90535
719.6544, 20.16655
720.1365, 20.24730
720.6187, 20.17859
721.1008, 19.59462
721.5829, 18.81712
722.0650, 18.59703
722.5471, 20.47449
723.0292, 21.78688
723.5114, 20.72090
723.9935, 18.00041
724.4756, 16.85196
724.9577, 18.56149
725.4398, 19.80542
725.9219, 19.36081
726.4041, 17.64030
726.8862, 16.65125
727.3683, 16.43184
727.8504, 17.06308
728.3325, 19.44620
728.8146, 22.29242
729.2968, 22.60895
729.7789, 20.52847
730.2610, 18.24953
730.7431, 16.95593
731.2252, 16.17682
731.7073, 15.52840
732.1895, 14.94600
732.6716, 14.84827
733.1537, 15.88803
733.6358, 16.90158
734.1179, 17.33823
734.6000, 17.12283
735.0822, 16.56113
735.5643, 15.52109
736.0464, 14.55188
736.5285, 14.25912
737.0106, 14.46873
737.4927, 14.45311
737.9749, 14.09792
738.4570, 13.93690
738.9391, 14.55017
739.4212, 15.57042
739.9033, 16.75844
740.3854, 18.62512
740.8676, 19.22028
741.3497, 16.71840
741.8318, 13.34361
742.3139, 11.49655
742.7960, 11.71341
743.2781, 12.01357
743.7603, 12.22574
744.2424, 12.52261
744.7245, 13.30060
745.2066, 14.43726
745.6887, 15.08827
746.1708, 14.92914
746.6530, 14.50845
747.1351, 14.53738
747.6172, 14.73402
748.0993, 14.59200
748.5814, 12.82948
749.0635, 11.95908
749.5457, 14.17743
750.0278, 17.69797
750.5099, 18.53992
750.9920, 14.67023
751.4741, 11.97577
751.9562, 11.94133
752.4384, 13.44690
752.9205, 13.51968
753.4026, 12.19324
753.8847, 11.15945
754.3668, 11.18901
754.8489, 11.71393
755.3311, 12.19183
755.8132, 12.63370
756.2953, 12.70229
756.7774, 11.73612
757.2595, 10.78040
757.7416, 10.46846
758.2238, 10.63519
758.7059, 10.18155
759.1880, 8.135559
759.6701, 7.009720
760.1522, 7.977661
760.6343, 10.45856
761.1165, 11.20253
761.5986, 10.12630
762.0807, 9.065750
762.5628, 9.311020
763.0449, 10.10573
763.5270, 9.941605
764.0092, 9.024200
764.4913, 8.431763
764.9734, 9.138596
765.4555, 10.04288
765.9376, 10.57689
766.4197, 10.70934
766.9019, 10.41895
767.3840, 9.058868
767.8661, 8.259155
768.3482, 9.072052
768.8303, 11.38710
769.3124, 12.17239
769.7946, 11.37727
770.2767, 10.04283
770.7588, 8.421021
771.2409, 6.916458
771.7230, 6.262863
772.2051, 6.461838
772.6873, 6.930527
773.1694, 7.769394
773.6515, 8.423843
774.1336, 8.439438
774.6157, 7.658401
775.0978, 6.900558
775.5800, 6.013855
776.0621, 5.411453
776.5442, 5.394745
777.0263, 5.994385
777.5084, 6.606064
777.9905, 7.259964
778.4727, 7.664886
778.9548, 7.206604
779.4369, 6.457199
779.9190, 6.675583
780.4011, 8.044418
780.8832, 8.871063
781.3654, 7.521591
781.8475, 5.740723
782.3296, 4.799286
782.8117, 5.233047
783.2938, 5.470398
783.7759, 5.303848
784.2581, 5.238342
784.7402, 5.932236
785.2223, 7.387924
785.7044, 7.582794
786.1865, 6.339188
786.6686, 4.732559
787.1508, 3.275665
787.6329, 2.310944
788.1150, 2.611176
788.5971, 4.517685
789.0792, 6.140518
789.5613, 6.644547
790.0435, 6.452713
790.5256, 5.820999
791.0077, 4.522415
791.4898, 3.473267
791.9719, 2.627014
792.4540, 2.124283
792.9362, 2.052643
793.4183, 2.422974
793.9004, 3.714767
794.3825, 6.126373
794.8646, 8.152634
795.3467, 8.065140
795.8289, 6.848465
796.3110, 5.831680
796.7931, 5.291077
797.2752, 4.715302
797.7573, 3.615463
798.2394, 2.608017
798.7216, 2.275681
799.2037, 3.173965
799.6858, 3.177399
800.1679, 2.012222
800.6500, 0.5664370
801.1321, 0.5704960
801.6143, 1.289841
802.0964, 0.8538820
802.5785, 0.9371490
803.0606, 2.722000
803.5427, 3.367477
804.0248, 3.332092
804.5070, 3.012344
804.9891, 2.250259
805.4712, 1.928680
805.9533, 2.617767
806.4354, 3.536697
806.9175, 4.097382
807.3997, 4.154099
807.8818, 4.715271
808.3639, 6.058609
808.8460, 6.944458
809.3281, 5.232513
809.8102, 2.135529
810.2924, 1.161377
810.7745, 3.031342
811.2566, 4.607986
811.7387, 3.257355
812.2208, 0.8548740
812.7029, 1.150467
813.1851, 3.058258
813.6672, 2.888062
814.1493, 0.8273160
814.6314, 4.902939
815.1135, 6.743271
815.5956, 6.276749
816.0778, 5.462265
816.5599, 4.337387
817.0420, 3.188156
817.5241, 2.243225
818.0062, 1.479416
818.4883, 0.8287960
818.9705, 0.2783660
819.4526, 0.1512760
819.9347, 0.7353210
820.4168, 0.9917760
820.8989, 0.4000240
821.3810, 1.370392
821.8632, 2.511887
822.3453, 2.855606
822.8274, 2.946625
823.3095, 3.360641
823.7916, 3.945313
824.2737, 3.689514
824.7559, 2.539047
825.2380, 1.317200
825.7201, 0.7106930
826.2022, 0.3608250
826.6843, 0.2631990
827.1664, 1.335052
827.6486, 1.499832
828.1307, 0.4362180
828.6128, 2.558670
829.0949, 4.152222
829.5770, 5.238388
830.0591, 4.789841
830.5413, 2.496124
831.0234, 0.5877530
831.5055, 1.452606
831.9876, 3.628723
832.4697, 3.938980
832.9518, 2.401428
833.4340, 1.212341
833.9161, 2.082703
834.3982, 3.363571
834.8803, 4.165939
835.3624, 4.390625
835.8445, 4.007401
836.3267, 2.615662
836.8088, 1.409515
837.2909, 1.125122
837.7730, 1.546371
838.2551, 1.021011
838.7372, 0.3504490
839.2194, 0.8329010
839.7015, 1.982162
840.1836, 5.307541
840.6657, 6.148987
841.1478, 4.826675
841.6299, 3.716705
842.1121, 3.741211
842.5942, 3.930588
843.0763, 4.011429
843.5584, 3.984100
844.0405, 3.772064
844.5226, 3.313019
845.0048, 3.052704
845.4869, 3.330750
845.9690, 3.813660
846.4511, 3.838821
846.9332, 3.494125
847.4153, 3.088730
847.8975, 2.283066
848.3796, 1.951584
848.8617, 3.050369
849.3438, 4.997818
849.8259, 5.849579
850.3080, 5.267014
850.7902, 4.209671
851.2723, 2.641586
851.7544, 1.021576
852.2365, 0.4703370
852.7186, 0.8503110
853.2007, 1.375992
853.6829, 1.737823
854.1650, 2.171646
854.6471, 3.101089
855.1292, 4.196533
855.6113, 4.901840
856.0934, 4.870285
856.5756, 4.680725
857.0577, 4.463806
857.5398, 4.072983
858.0219, 3.389999
858.5040, 2.415588
858.9861, 1.426239
859.4683, 0.2972560
859.9504, 0.3435360
860.4325, 0.5896000
860.9146, 2.386368
861.3967, 3.903824
861.8788, 4.869919
862.3610, 5.481171
862.8431, 6.095306
863.3252, 6.156570
863.8073, 5.018661
864.2894, 1.792343
864.7715, 0.2699130
865.2537, 0.7725680
865.7358, 1.998505
866.2179, 2.923203
866.7000, 3.526871
867.1821, 3.642303
867.6642, 3.228485
868.1464, 2.835571
868.6285, 2.938324
869.1106, 3.140305
869.5927, 3.082443
870.0748, 2.612274
870.5569, 2.447128
871.0391, 2.599182
871.5212, 2.972763
872.0033, 3.809174
872.4854, 4.821716
872.9675, 4.670700
873.4496, 3.426605
873.9318, 2.242249
874.4139, 1.893219
874.8960, 1.961090
875.3781, 2.217712
875.8602, 2.598251
876.3423, 2.778214
876.8245, 2.402130
877.3066, 2.200790
877.7887, 2.480362
878.2708, 3.068497
878.7529, 3.085876
879.2350, 2.533463
879.7172, 2.073669
880.1993, 1.801422
880.6814, 2.010452
881.1635, 3.455734
881.6456, 5.517075
882.1277, 6.847961
882.6099, 6.871719
883.0920, 6.163681
883.5741, 4.219666
884.0562, 1.941895
884.5383, 0.7713320
885.0204, 0.8389430
885.5026, 0.9084320
885.9847, 0.7290190
886.4668, 0.7733000
886.9489, 2.031052
887.4310, 3.969299
887.9131, 5.526398
888.3953, 6.401917
888.8774, 6.959045
889.3595, 7.368195
889.8416, 7.536530
890.3237, 7.373489
890.8058, 6.863037
891.2880, 6.120041
891.7701, 5.049698
892.2522, 3.964493
892.7343, 2.987350
893.2164, 2.285370
893.6985, 2.510300
894.1807, 3.692062
894.6628, 4.323975
895.1449, 2.281052
895.6270, 0.2994230
896.1091, 0.6120000
896.5912, 3.556320
897.0734, 4.970261
897.5555, 4.224487
898.0376, 3.584259
898.5197, 4.499695
899.0018, 6.249603
899.4839, 5.950867
899.9661, 3.931519
900.4482, 2.107010
900.9303, 1.254868
901.4124, 1.201828
901.8945, 2.420029
902.3766, 4.388107
902.8588, 5.393768
903.3409, 4.737091
903.8230, 4.115952
904.3051, 3.786652
904.7872, 3.694839
905.2693, 3.754822
905.7515, 4.025009
906.2336, 4.376038
906.7157, 4.844254
907.1978, 5.260757
907.6799, 5.547974
908.1620, 5.635757
908.6442, 5.442719
909.1263, 4.896408
909.6084, 4.085114
910.0905, 2.767929
910.5726, 1.575623
911.0547, 0.9851230
911.5369, 1.000046
912.0190, 2.031479
912.5011, 4.270996
912.9832, 5.650833
913.4653, 3.512802
913.9474, 0.5081480
914.4296, 0.8276670
914.9117, 0.1857150
915.3938, 0.2836760
915.8759, 0.1083220
916.3580, 0.2029270
916.8401, 0.6901860
917.3223, 2.270599
917.8044, 2.643417
918.2865, 1.894409
918.7686, 1.157837
919.2507, 0.9580540
919.7328, 1.108383
920.2150, 1.822693
920.6971, 2.731186
921.1792, 2.932236
921.6613, 0.9527440
922.1434, 5.8639999E-02
922.6255, 0.7477870
923.1077, 2.347595
923.5898, 2.871765
924.0719, 2.387207
924.5540, 2.229752
925.0361, 2.723206
925.5182, 3.252228
926.0004, 3.259705
926.4825, 3.035355
926.9646, 2.946823
927.4467, 3.218414
927.9288, 3.133621
928.4109, 2.289719
928.8931, 1.490250
929.3752, 1.339844
929.8573, 1.824738
930.3394, 2.332474
930.8215, 2.861786
931.3036, 3.027451
931.7858, 2.118546
932.2679, 1.025833
932.7500, 0.7727050
933.2321, 1.259003
933.7142, 1.369247
934.1964, 0.5684970
934.6785, 0.3028720
935.1606, 1.342300
935.6427, 2.141541
936.1248, 0.7806400
936.6069, 2.484894
937.0891, 4.101288
937.5712, 2.043427
938.0533, 0.4299620
938.5354, 0.2211610
939.0175, 1.701187
939.4996, 3.919998
939.9818, 7.780243
940.4639, 9.206009
940.9460, 6.935333
941.4281, 3.817566
941.9102, 3.029968
942.3923, 4.188614
942.8745, 4.099915
943.3566, 2.497986
943.8387, 0.9275360
944.3208, 0.4923100
944.8029, 0.7794040
945.2850, 1.835281
945.7672, 3.705215
946.2493, 4.348526
946.7314, 3.129227
947.2135, 1.723679
947.6956, 0.6319120
948.1777, 0.1398010
948.6599, 0.6207280
949.1420, 0.7682950
949.6241, 0.2801970
950.1062, 1.709198
950.5883, 3.519272
951.0704, 3.669571
951.5526, 2.898621
952.0347, 2.617966
952.5168, 3.278320
952.9989, 3.757339
953.4810, 3.938171
953.9631, 3.972672
954.4453, 4.007706
954.9274, 3.999527
955.4095, 4.255981
955.8916, 4.844345
956.3737, 5.181549
956.8558, 4.555984
957.3380, 3.779938
957.8201, 3.531387
958.3022, 3.885162
958.7843, 3.852386
959.2664, 3.256180
959.7485, 2.837250
960.2307, 2.900452
960.7128, 3.412079
961.1949, 5.048248
961.6770, 7.202454
962.1591, 7.724396
962.6412, 3.244080
963.1234, 0.3802030
963.6055, 6.2302001E-02
964.0876, 2.561890
964.5697, 3.764297
965.0518, 3.442154
965.5339, 2.709061
966.0161, 1.510818
966.4982, 0.6422580
966.9803, 1.450729
967.4624, 3.088211
967.9445, 4.295654
968.4266, 4.942551
968.9088, 4.599335
969.3909, 1.310303
969.8730, 1.224503
970.3551, 0.6161960
970.8372, 2.853851
971.3193, 4.007858
971.8015, 2.744507
972.2836, 1.436539
972.7657, 1.535522
973.2478, 2.350754
973.7299, 3.529419
974.2120, 4.755508
974.6942, 5.275528
975.1763, 3.998276
975.6584, 3.118652
976.1405, 3.018784
976.6226, 3.310333
977.1047, 3.444305
977.5869, 3.447098
978.0690, 3.587646
978.5511, 3.914795
979.0332, 4.268372
979.5153, 4.888733
979.9974, 5.201538
980.4796, 4.542862
980.9617, 2.659286
981.4438, 1.199524
981.9259, 7.4692003E-02
982.4080, 0.3400730
982.8901, 0.3927920
983.3723, 1.820602
983.8544, 2.500290
984.3365, 2.580109
984.8186, 2.676147
985.3007, 3.451782
985.7828, 3.915939
986.2650, 3.182068
986.7471, 1.976166
987.2292, 1.543747
987.7113, 2.120667
988.1934, 2.689819
988.6755, 3.211594
989.1577, 3.529953
989.6398, 3.265869
990.1219, 2.752716
990.6040, 2.674042
991.0861, 3.118942
991.5682, 3.278931
992.0504, 2.208237
992.5325, 1.430954
993.0146, 1.938599
993.4967, 3.326935
993.9788, 3.117203
994.4609, 1.312592
994.9431, 1.7806999E-02
995.4252, 0.4024810
995.9073, 1.212036
996.3894, 1.281601
996.8715, 0.9487760
997.3536, 0.6861720
997.8358, 0.7663420
998.3179, 0.6430210
998.8000, 5.1787999E-02
999.2821, 0.3539890
999.7642, 0.2553560
1000.246, 1.661819
1000.728, 2.814224
1001.211, 3.643616
1001.693, 3.719452
1002.175, 1.886887
1002.657, 4.3489998E-03
1003.139, 0.5938420
1003.621, 4.6523999E-02
1004.103, 0.1921690
1004.585, 6.8572998E-02
1005.068, 0.1666870
1005.550, 1.422684
1006.032, 2.788910
1006.514, 2.504745
1006.996, 1.367249
1007.478, 1.046906
1007.960, 2.403671
1008.442, 3.601303
1008.924, 4.081711
1009.407, 4.221909
1009.889, 4.312180
1010.371, 4.390244
1010.853, 3.286591
1011.335, 0.9718320
1011.817, 0.6282040
1012.299, 0.4154660
1012.781, 2.201599
1013.263, 3.295090
1013.746, 3.680283
1014.228, 3.398972
1014.710, 1.624832
1015.192, 0.9204710
1015.674, 1.941193
1016.156, 3.632507
1016.638, 4.444427
1017.120, 4.558151
1017.603, 4.428421
1018.085, 4.127670
1018.567, 3.772705
1019.049, 3.368042
1019.531, 2.984909
1020.013, 2.633041
1020.495, 2.315613
1020.977, 2.101410
1021.459, 2.064362
1021.942, 2.457947
1022.424, 3.685181
1022.906, 4.982330
1023.388, 4.938232
1023.870, 4.252472
1024.352, 4.296082
1024.834, 6.793564
1025.316, 8.136429
1025.799, 7.324097
1026.281, 6.245056
1026.763, 7.183289
1027.245, 9.716339
1027.727, 11.00545
1028.209, 11.08336
1028.691, 10.97278
1029.173, 11.15565
1029.656, 11.38657
1030.138, 11.58118
1030.620, 11.68513
1031.102, 11.37477
1031.584, 10.42305
1032.066, 10.08910
1032.548, 10.85266
1033.030, 12.09142
1033.512, 13.33609
1033.995, 14.25616
1034.477, 14.16377
1034.959, 12.66573
1035.441, 11.07359
1035.923, 9.529282
1036.405, 8.164780
1036.887, 7.005020
1037.369, 6.075974
1037.851, 5.538483
1038.334, 5.391205
1038.816, 5.533112
1039.298, 6.339172
1039.780, 6.956696
1040.262, 7.045303
1040.744, 6.560211
1041.226, 5.134705
1041.708, 1.949417
1042.191, 0.2460940
1042.673, 0.3742070
1043.155, 1.447861
1043.637, 3.381287
1044.119, 5.274460
1044.601, 5.204132
1045.083, 3.139160
1045.565, 1.522873
1046.047, 1.363907
1046.530, 1.685165
1047.012, 2.401978
1047.494, 3.280594
1047.976, 3.754623
1048.458, 3.817551
1048.940, 3.280930
1049.422, 1.860992
1049.904, 0.5936130
1050.386, 1.2660000E-03
1050.869, 0.1036530
1051.351, 1.297562
1051.833, 4.004990
1052.315, 4.820343
1052.797, 3.353012
1053.279, 1.690735
1053.761, 0.8912510
1054.243, 0.7159730
1054.726, 0.8822330
1055.208, 1.328079
1055.690, 1.893356
1056.172, 2.762238
1056.654, 3.398804
1057.136, 3.748825
1057.618, 3.882568
1058.100, 3.673523
1058.583, 3.192276
1059.065, 3.046005
1059.547, 3.268463
1060.029, 3.231827
1060.511, 1.778809
1060.993, 0.5621340
1061.475, 1.025101
1061.957, 2.725143
1062.439, 3.879059
1062.922, 4.518326
1063.404, 4.510437
1063.886, 3.682693
1064.368, 2.596832
1064.850, 1.877106
1065.332, 1.356964
1065.814, 0.7514340
1066.296, 0.1025240
1066.778, 0.4590760
1067.261, 2.9755000E-02
1067.743, 0.4449460
1068.225, 0.4744870
1068.707, 0.3184970
1069.189, 1.061478
1069.671, 2.375916
1070.153, 3.314545
1070.635, 3.478882
1071.118, 2.993088
1071.600, 0.9666600
1072.082, 1.048676
1072.564, 1.206268
1073.046, 0.7325440
1073.528, 1.322220
1074.010, 0.4096530
1074.492, 0.4392850
1074.974, 0.2272030
1075.457, 1.282516
1075.939, 1.631607
1076.421, 1.475693
1076.903, 1.881683
1077.385, 3.406174
1077.867, 4.025681
1078.349, 3.175568
1078.831, 1.948395
1079.313, 1.815079
1079.796, 2.318695
1080.278, 2.714417
1080.760, 2.906174
1081.242, 2.872421
1081.724, 2.217606
1082.206, 1.803070
1082.688, 2.025192
1083.170, 2.659042
1083.652, 2.926300
1084.135, 2.924973
1084.617, 3.203308
1085.099, 4.151169
1085.581, 4.868668
1086.063, 4.738556
1086.545, 4.157776
1087.027, 3.509323
1087.509, 2.822983
1087.992, 1.687134
1088.474, 2.7907999E-02
1088.956, 0.9127810
1089.438, 0.4030910
1089.920, 2.200668
1090.402, 2.094421
1090.884, 0.9641110
1091.366, 0.8761290
1091.849, 3.125275
1092.331, 4.364746
1092.813, 4.179565
1093.295, 3.643829
1093.777, 3.919418
1094.259, 4.583572
1094.741, 4.711487
1095.223, 4.332718
1095.705, 4.038025
1096.188, 4.438873
1096.670, 4.466476
1097.152, 3.569855
1097.634, 2.373718
1098.116, 2.058792
1098.598, 2.456497
1099.080, 2.472672
1099.562, 1.853928
1100.044, 1.753296
1100.527, 3.789749
1101.009, 5.834259
1101.491, 6.559021
1101.973, 6.058151
1102.455, 4.287216
1102.937, 1.145996
1103.419, 0.5156860
1103.901, 0.5859680
1104.384, 2.721191
1104.866, 4.934647
1105.348, 6.727966
1105.830, 7.184998
1106.312, 5.729172
1106.794, 5.149704
1107.276, 5.663193
1107.758, 6.284668
1108.240, 6.457977
1108.723, 6.380280
1109.205, 6.423553
1109.687, 6.528778
1110.169, 6.560287
1110.651, 6.685043
1111.133, 6.342178
1111.615, 5.137985
1112.097, 4.069534
1112.579, 4.370361
1113.062, 5.551147
1113.544, 5.703232
1114.026, 4.914352
1114.508, 4.116119
1114.990, 3.598221
1115.472, 3.395218
1115.954, 3.596970
1116.436, 4.055618
1116.919, 4.613297
1117.401, 5.263977
1117.883, 5.951706
1118.365, 6.684280
1118.847, 7.002548
1119.329, 6.059860
1119.811, 5.032471
1120.293, 4.843948
1120.776, 5.295837
1121.258, 5.536011
1121.740, 5.520370
1122.222, 5.526352
1122.704, 5.752213
1123.186, 5.539642
1123.668, 3.224197
1124.150, 0.6938170
1124.632, 0.2737880
1125.115, 2.589767
1125.597, 4.129913
1126.079, 4.901093
1126.561, 4.613983
1127.043, 2.629028
1127.525, 0.3707120
1128.007, 0.2531590
1128.489, 1.505981
1128.971, 2.924667
1129.454, 4.536697
1129.936, 5.315903
1130.418, 5.096405
1130.900, 4.396057
1131.382, 3.014999
1131.864, 1.542374
1132.346, 2.027969
1132.828, 3.867569
1133.311, 4.990570
1133.793, 3.567429
1134.275, 2.725250
1134.757, 3.603943
1135.239, 4.778000
1135.721, 4.778015
1136.203, 3.851700
1136.685, 4.411865
1137.167, 6.276382
1137.650, 7.488754
1138.132, 6.389420
1138.614, 4.975845
1139.096, 3.833603
1139.578, 3.105347
1140.060, 3.162262
1140.542, 4.017746
1141.024, 4.607590
1141.506, 4.846893
1141.989, 4.842056
1142.471, 4.241882
1142.953, 3.830368
1143.435, 4.806015
1143.917, 6.391037
1144.399, 5.687729
1144.881, 2.208450
1145.363, 0.4189300
1145.846, 1.350372
1146.328, 2.533600
1146.810, 0.7184600
1147.292, 1.486664
1147.774, 1.283051
1148.256, 1.467972
1148.738, 2.995163
1149.220, 2.941681
1149.703, 2.880295
1150.185, 3.303329
1150.667, 3.706696
1151.149, 2.949051
1151.631, 1.993622
1152.113, 2.630295
1152.595, 5.604263
1153.077, 5.957703
1153.559, 2.037384
1154.042, 0.7487640
1154.524, 0.1668850
1155.006, 2.855103
1155.488, 4.351852
1155.970, 4.810989
1156.452, 4.331055
1156.934, 2.409271
1157.416, 1.200058
1157.898, 0.9552760
1158.381, 1.396957
1158.863, 2.817871
1159.345, 4.552948
1159.827, 4.351898
1160.309, 2.857788
1160.791, 1.865402
1161.273, 2.699768
1161.755, 2.783905
1162.238, 0.7156680
1162.720, 1.072983
1163.202, 0.2169650
1163.684, 2.527710
1164.166, 2.905548
1164.648, 1.391220
1165.130, 6.9672003E-02
1165.612, 0.2309570
1166.094, 8.6319000E-02
1166.577, 1.585526
1167.059, 2.970169
1167.541, 2.572281
1168.023, 0.6903230
1168.505, 0.2934270
1168.987, 1.303040
1169.469, 2.279129
1169.951, 2.345245
1170.433, 2.231766
1170.916, 2.378113
1171.398, 2.456757
1171.880, 1.765945
1172.362, 0.3871310
1172.844, 0.3095860
1173.326, 1.648758
1173.808, 2.824722
1174.290, 2.705978
1174.773, 2.137772
1175.255, 1.077362
1175.737, 0.1143650
1176.219, 0.8196560
1176.701, 3.215057
1177.183, 3.817108
1177.665, 2.087448
1178.147, 0.2135620
1178.630, 0.4765170
1179.112, 0.3235930
1179.594, 1.103485
1180.076, 3.131485
1180.558, 3.434647
1181.040, 1.887268
1181.522, 1.292068
1182.004, 2.337891
1182.486, 3.305435
1182.969, 2.073349
1183.451, 0.5991520
1183.933, 0.7662050
1184.415, 2.313797
1184.897, 2.972870
1185.379, 2.667450
1185.861, 2.336502
1186.343, 2.212723
1186.825, 2.178833
1187.308, 2.433929
1187.790, 2.503265
1188.272, 1.606384
1188.754, 0.2026370
1189.236, 0.8226010
1189.718, 0.1595920
1190.200, 1.044312
1190.682, 2.901321
1191.165, 4.209152
1191.647, 3.003860
1192.129, 0.9992680
1192.611, 7.6309003E-02
1193.093, 0.4788060
1193.575, 0.8999180
1194.057, 1.354935
1194.539, 1.681946
1195.021, 1.719879
1195.504, 1.804825
1195.986, 2.574646
1196.468, 3.480881
1196.950, 3.759613
1197.432, 3.245132
1197.914, 2.770172
1198.396, 2.324692
1198.878, 1.954529
1199.360, 1.541138
1199.843, 1.440445
1200.325, 2.609436
1200.807, 4.116989
1201.289, 4.508926
1201.771, 3.300751
1202.253, 2.523956
1202.735, 2.170135
1203.217, 2.365814
1203.700, 3.778580
1204.182, 5.077560
1204.664, 4.162048
1205.146, 2.232208
1205.628, 1.423615
1206.110, 2.345490
1206.592, 3.163467
1207.074, 3.895615
1207.557, 4.433258
1208.039, 4.877594
1208.521, 5.102875
1209.003, 3.871796
1209.485, 2.177338
1209.967, 2.191071
1210.449, 5.203278
1210.931, 6.814331
1211.413, 6.927277
1211.896, 6.236938
1212.378, 4.841797
1212.860, 3.340515
1213.342, 2.204834
1213.824, 1.528397
1214.306, 1.677246
1214.788, 3.185974
1215.270, 3.409882
1215.752, 2.107864
1216.235, 1.040283
1216.717, 1.957214
1217.199, 3.351028
1217.681, 3.655273
1218.163, 3.289383
1218.645, 3.272675
1219.127, 3.837433
1219.609, 4.023621
1220.092, 3.770889
1220.574, 3.311661
1221.056, 2.763016
1221.538, 2.324570
1222.020, 2.126328
1222.502, 2.229477
1222.984, 2.811737
1223.466, 4.080994
1223.948, 4.558853
1224.431, 4.065750
1224.913, 3.882568
1225.395, 6.263336
1225.877, 8.240280
1226.359, 6.418640
1226.841, 2.504913
1227.323, 0.8389130
1227.805, 1.736481
1228.287, 3.153992
1228.770, 5.009048
1229.252, 6.051926
1229.734, 4.345428
1230.216, 2.368103
1230.698, 1.950363
1231.180, 2.643280
1231.662, 3.339478
1232.144, 4.079025
1232.627, 4.330795
1233.109, 4.047928
1233.591, 3.363800
1234.073, 1.506714
1234.555, 0.1672670
1235.037, 0.9614870
1235.519, 2.852585
1236.001, 4.081223
1236.484, 4.623215
1236.966, 3.999298
1237.448, 2.183319
1237.930, 0.7897950
1238.412, 1.318146
1238.894, 2.184357
1239.376, 2.528625
1239.858, 2.629608
1240.340, 3.012161
1240.823, 3.607864
1241.305, 3.473999
1241.787, 2.560165
1242.269, 2.021988
1242.751, 3.483078
1243.233, 4.363342
1243.715, 2.944443
1244.197, 0.8916780
1244.679, 1.068573
1245.162, 2.992706
1245.644, 4.108109
1246.126, 4.246796
1246.608, 4.032761
1247.090, 3.443039
1247.572, 3.233780
1248.054, 3.873047
1248.536, 4.673889
1249.019, 4.442169
1249.501, 3.509705
1249.983, 2.832687
1250.465, 2.510818
1250.947, 2.560486
1251.429, 3.451599
1251.911, 4.053375
1252.393, 4.027557
1252.875, 3.814529
1253.358, 4.064117
1253.840, 4.564011
1254.322, 4.886627
1254.804, 4.993469
1255.286, 4.881439
1255.768, 4.305206
1256.250, 3.937424
1256.732, 3.895859
1257.214, 4.070251
1257.697, 4.326279
1258.179, 4.708893
1258.661, 5.736679
1259.143, 7.145477
1259.625, 6.876602
1260.107, 3.826675
1260.589, 1.517090
1261.071, 0.4345250
1261.554, 0.2326660
1262.036, 1.140686
1262.518, 2.283554
1263.000, 2.445770
1263.482, 1.864426
1263.964, 2.166733
1264.446, 4.000656
1264.928, 3.755295
1265.411, 0.6985020
1265.893, 2.198227
1266.375, 2.221893
1266.857, 0.9809270
1267.339, 0.6975400
1267.821, 2.433380
1268.303, 3.296387
1268.785, 3.225388
1269.267, 2.875854
1269.750, 2.295517
1270.232, 2.583069
1270.714, 6.087234
1271.196, 9.162720
1271.678, 9.056702
1272.160, 7.128983
1272.642, 4.892776
1273.124, 2.493439
1273.606, 2.346573
1274.089, 4.491196
1274.571, 6.209518
1275.053, 5.432968
1275.535, 4.452698
1276.017, 4.126358
1276.499, 4.050079
1276.981, 3.421646
1277.463, 2.581100
1277.946, 3.268814
1278.428, 5.285995
1278.910, 6.508621
1279.392, 4.849686
1279.874, 3.979111
1280.356, 4.812775
1280.838, 6.061081
1281.320, 6.139359
1281.802, 5.671249
1282.285, 6.212677
1282.767, 7.467911
1283.249, 7.887955
1283.731, 6.098068
1284.213, 5.195175
1284.695, 4.966064
1285.177, 4.825912
1285.659, 5.758331
1286.141, 6.252396
1286.624, 4.490784
1287.106, 1.561020
1287.588, 0.7915950
1288.070, 3.216202
1288.552, 4.061508
1289.034, 2.969772
1289.516, 1.804550
1289.998, 2.304688
1290.481, 2.988907
1290.963, 2.404785
1291.445, 1.344070
1291.927, 1.193130
1292.409, 2.004242
1292.891, 2.916290
1293.373, 3.875015
1293.855, 4.393036
1294.338, 4.262527
1294.820, 3.614532
1295.302, 1.631241
1295.784, 0.1980740
1296.266, 9.4008997E-02
1296.748, 1.501877
1297.230, 2.512466
1297.712, 2.853088
1298.194, 3.057648
1298.677, 3.135010
1299.159, 2.898010
1299.641, 1.267227
1300.123, 5.5466000E-02
1300.605, 1.242996
1301.087, 3.268616
1301.569, 3.883286
1302.051, 3.101776
1302.533, 1.880371
1303.016, 0.0000000E+00
##END=



