##NAMES=Lorandite
##RRUFFID=R110055
##IDEAL CHEMISTRY=TlAsS_2_
##LOCALITY= Xingren County, Qianxi'nan Autonomous Prefecture, Guizhou Province, China
##OWNER=RRUFF
##SOURCE=Don Doell
##DESCRIPTION=Red platy crystals and cleavages
##STATUS=The identification of this mineral has been confirmed by single-crystal X-ray diffraction.
##URL=rruff.info/R110055
144.1542, 0.0000000E+00
144.6364, 9.220459
145.1185, 15.51428
145.6006, 7.737671
146.0827, 1.287598
146.5648, 2.845093
147.0469, 0.1075440
147.5291, 4.217651
148.0112, 9.259766
148.4933, 15.02832
148.9754, 21.78430
149.4575, 30.07471
149.9396, 38.18811
150.4218, 44.73840
150.9039, 51.05762
151.3860, 58.80701
151.8681, 68.93750
152.3502, 81.35498
152.8323, 94.96960
153.3145, 111.0682
153.7966, 127.1301
154.2787, 142.6835
154.7608, 157.8308
155.2429, 172.9132
155.7250, 188.2139
156.2072, 203.6718
156.6893, 220.2233
157.1714, 238.0087
157.6535, 256.4868
158.1356, 276.0305
158.6177, 296.2601
159.0999, 316.0009
159.5820, 333.8507
160.0641, 349.3506
160.5462, 367.2877
161.0283, 389.5547
161.5104, 412.7404
161.9926, 433.9132
162.4747, 452.6780
162.9568, 471.4066
163.4389, 492.2797
163.9210, 515.2905
164.4031, 539.6378
164.8853, 566.2976
165.3674, 593.9919
165.8495, 620.4252
166.3316, 645.2347
166.8137, 669.5430
167.2958, 694.7446
167.7780, 720.5081
168.2601, 745.2592
168.7422, 769.5342
169.2243, 792.4062
169.7064, 809.9664
170.1885, 820.5792
170.6707, 826.5105
171.1528, 830.5227
171.6349, 832.2056
172.1170, 829.7866
172.5991, 821.3142
173.0812, 806.6279
173.5634, 789.8018
174.0455, 769.9673
174.5276, 748.4083
175.0097, 725.0898
175.4918, 700.3069
175.9739, 675.0256
176.4561, 650.6212
176.9382, 627.3586
177.4203, 603.2959
177.9024, 575.5176
178.3845, 549.2720
178.8666, 527.8666
179.3488, 511.5789
179.8309, 498.0054
180.3130, 484.1624
180.7951, 468.9991
181.2772, 456.6709
181.7593, 447.2509
182.2415, 440.0615
182.7236, 434.8569
183.2057, 431.4637
183.6878, 429.7947
184.1699, 429.6782
184.6520, 430.7935
185.1342, 434.6064
185.6163, 441.9161
186.0984, 452.2904
186.5805, 464.9656
187.0626, 479.9930
187.5447, 498.0095
188.0269, 520.5959
188.5090, 548.4550
188.9911, 576.3237
189.4732, 602.2179
189.9553, 625.9088
190.4374, 648.7937
190.9196, 671.6206
191.4017, 692.2706
191.8838, 708.3951
192.3659, 720.3749
192.8480, 728.2380
193.3301, 729.9736
193.8123, 726.0721
194.2944, 720.9426
194.7765, 716.2805
195.2586, 710.3472
195.7407, 702.0560
196.2228, 691.5980
196.7050, 678.4622
197.1871, 662.3484
197.6692, 643.3888
198.1513, 621.4293
198.6334, 593.9974
199.1155, 565.4329
199.5977, 538.1198
200.0798, 512.2880
200.5619, 488.1525
201.0440, 465.2971
201.5261, 443.2141
202.0082, 426.4856
202.4904, 413.5468
202.9725, 405.2142
203.4546, 402.8618
203.9367, 406.2274
204.4188, 413.7056
204.9009, 423.3157
205.3831, 435.0389
205.8652, 448.7139
206.3473, 466.8180
206.8294, 484.8055
207.3115, 501.1262
207.7936, 514.9592
208.2758, 525.2516
208.7579, 530.6310
209.2400, 531.4905
209.7221, 525.4078
210.2042, 513.2838
210.6863, 495.1517
211.1685, 469.5883
211.6506, 436.9310
212.1327, 400.2363
212.6148, 363.2690
213.0969, 324.9969
213.5790, 289.7582
214.0612, 256.8596
214.5433, 227.2004
215.0254, 201.6149
215.5075, 180.3823
215.9896, 161.8031
216.4717, 143.5769
216.9539, 124.3944
217.4360, 109.3633
217.9181, 100.3126
218.4002, 94.53455
218.8823, 89.81604
219.3644, 85.66223
219.8466, 81.61597
220.3287, 76.88293
220.8108, 71.12305
221.2929, 66.43408
221.7750, 64.09607
222.2571, 62.60156
222.7393, 59.92041
223.2214, 55.52209
223.7035, 50.66357
224.1856, 47.08643
224.6677, 44.69287
225.1498, 42.02600
225.6320, 38.93018
226.1141, 35.28149
226.5962, 30.67615
227.0783, 24.77856
227.5604, 18.69592
228.0425, 13.51257
228.5247, 9.080811
229.0068, 4.712891
229.4889, 0.1550290
229.9710, 4.468506
230.4531, 8.949341
230.9352, 13.27417
231.4174, 17.36877
231.8995, 21.10779
232.3816, 24.57385
232.8637, 27.94666
233.3458, 31.88562
233.8279, 35.86340
234.3101, 38.09277
234.7922, 37.79663
235.2743, 36.83875
235.7564, 36.33789
236.2385, 36.06189
236.7206, 35.52637
237.2028, 34.27686
237.6849, 32.53369
238.1670, 31.26099
238.6491, 30.70386
239.1312, 30.28442
239.6133, 29.96790
240.0955, 29.58936
240.5776, 28.96094
241.0597, 28.14856
241.5418, 26.95020
242.0239, 24.28992
242.5060, 18.99231
242.9882, 13.73865
243.4703, 9.394043
243.9524, 5.577271
244.4345, 1.789551
244.9166, 2.157715
245.3987, 6.394409
245.8809, 11.52136
246.3630, 18.03760
246.8451, 24.90674
247.3272, 31.79614
247.8093, 38.91418
248.2914, 46.54578
248.7736, 54.87622
249.2557, 63.76636
249.7378, 72.48730
250.2199, 79.69287
250.7020, 88.61047
251.1841, 100.8301
251.6663, 114.5189
252.1484, 127.3799
252.6305, 138.3641
253.1126, 148.0533
253.5947, 158.5038
254.0768, 168.3774
254.5590, 180.8485
255.0411, 197.4175
255.5232, 216.1372
256.0053, 235.1990
256.4874, 253.7675
256.9695, 272.0024
257.4517, 290.2588
257.9338, 309.8760
258.4159, 327.8577
258.8980, 342.5450
259.3801, 356.3259
259.8622, 371.7048
260.3444, 389.5472
260.8265, 409.2125
261.3086, 429.4913
261.7907, 450.8104
262.2728, 472.3845
262.7549, 495.4619
263.2371, 518.2721
263.7192, 538.3717
264.2013, 555.2577
264.6834, 571.1324
265.1655, 589.2218
265.6476, 610.1776
266.1298, 632.1423
266.6119, 655.8428
267.0940, 680.2343
267.5761, 704.4608
268.0582, 728.4314
268.5403, 751.9243
269.0225, 775.0024
269.5046, 797.9302
269.9867, 818.0693
270.4688, 834.7744
270.9509, 848.9723
271.4330, 862.1622
271.9152, 874.3440
272.3973, 883.1532
272.8794, 886.4266
273.3615, 883.4067
273.8436, 875.6716
274.3257, 863.6702
274.8079, 846.6190
275.2900, 823.5056
275.7721, 794.3307
276.2542, 760.8909
276.7363, 723.6807
277.2184, 682.8027
277.7006, 640.4849
278.1827, 595.9481
278.6648, 550.8718
279.1469, 506.0132
279.6290, 461.6434
280.1111, 418.6079
280.5933, 376.6769
281.0754, 337.0940
281.5575, 301.9380
282.0396, 272.1295
282.5217, 245.6200
283.0038, 221.1785
283.4860, 198.9076
283.9681, 179.1805
284.4502, 162.3640
284.9323, 148.2269
285.4144, 135.6406
285.8965, 124.5839
286.3787, 114.8756
286.8608, 106.7635
287.3429, 99.94421
287.8250, 93.40503
288.3071, 86.87659
288.7892, 80.50964
289.2714, 74.47607
289.7535, 68.80920
290.2356, 63.26526
290.7177, 57.72229
291.1998, 52.17627
291.6819, 46.63855
292.1641, 41.14355
292.6462, 36.10889
293.1283, 31.68799
293.6104, 27.81921
294.0925, 24.95129
294.5746, 23.47461
295.0568, 23.15369
295.5389, 23.33252
296.0210, 23.69409
296.5031, 25.10791
296.9852, 29.10779
297.4673, 34.89417
297.9495, 40.51868
298.4316, 44.08521
298.9137, 47.61475
299.3958, 54.25623
299.8779, 64.47546
300.3600, 76.62366
300.8422, 90.21448
301.3243, 104.7810
301.8064, 119.3085
302.2885, 132.9908
302.7706, 147.3459
303.2527, 164.7460
303.7349, 185.4415
304.2170, 205.5171
304.6991, 222.5138
305.1812, 238.0597
305.6633, 254.5482
306.1454, 272.8192
306.6276, 290.5353
307.1097, 305.7766
307.5918, 318.5717
308.0739, 329.7948
308.5560, 339.0922
309.0381, 347.1301
309.5203, 354.6500
310.0024, 361.6625
310.4845, 368.5795
310.9666, 375.1356
311.4487, 381.6317
311.9308, 389.5071
312.4130, 398.9143
312.8951, 410.0276
313.3772, 422.6852
313.8593, 436.8446
314.3414, 452.2369
314.8235, 469.2648
315.3057, 487.4182
315.7878, 505.4445
316.2699, 522.7284
316.7520, 540.9624
317.2341, 560.8110
317.7162, 582.3209
318.1984, 606.3772
318.6805, 636.7111
319.1626, 668.1238
319.6447, 692.6951
320.1268, 710.1121
320.6089, 722.3510
321.0911, 731.4076
321.5732, 735.4291
322.0553, 731.0936
322.5374, 717.4913
323.0195, 695.7388
323.5016, 666.6986
323.9838, 630.2094
324.4659, 587.1390
324.9480, 534.4210
325.4301, 477.3684
325.9122, 422.4609
326.3943, 369.3164
326.8765, 319.6007
327.3586, 273.7068
327.8407, 231.7505
328.3228, 195.7080
328.8049, 166.9569
329.2870, 143.4243
329.7692, 122.8806
330.2513, 105.2231
330.7334, 89.88660
331.2155, 76.73499
331.6976, 65.76575
332.1797, 56.93481
332.6619, 50.17151
333.1440, 45.75769
333.6261, 44.96155
334.1082, 46.73389
334.5903, 48.96179
335.0724, 50.48547
335.5546, 52.39099
336.0367, 56.27625
336.5188, 62.25867
337.0009, 68.87622
337.4830, 74.91968
337.9651, 81.26794
338.4473, 89.38892
338.9294, 99.41248
339.4115, 111.2827
339.8936, 125.3248
340.3757, 141.4006
340.8578, 157.8480
341.3400, 173.3722
341.8221, 189.9583
342.3042, 210.4076
342.7863, 235.0922
343.2684, 261.3842
343.7505, 287.3374
344.2327, 313.9803
344.7148, 343.7523
345.1969, 377.1812
345.6790, 413.7679
346.1611, 453.5680
346.6432, 496.1461
347.1254, 541.2334
347.6075, 588.3040
348.0896, 638.0117
348.5717, 690.3462
349.0538, 745.5165
349.5359, 803.6320
350.0181, 865.5726
350.5002, 931.1077
350.9823, 997.9712
351.4644, 1064.554
351.9465, 1133.362
352.4286, 1205.448
352.9108, 1280.917
353.3929, 1361.623
353.8750, 1447.656
354.3571, 1540.063
354.8392, 1640.822
355.3214, 1748.859
355.8035, 1864.991
356.2856, 1987.796
356.7677, 2118.842
357.2498, 2260.959
357.7319, 2415.307
358.2141, 2580.285
358.6962, 2760.621
359.1783, 2960.994
359.6604, 3147.086
360.1425, 3300.689
360.6246, 3448.194
361.1068, 3614.424
361.5889, 3802.439
362.0710, 3996.324
362.5531, 4186.123
363.0352, 4371.377
363.5173, 4538.807
363.9995, 4697.036
364.4816, 4832.036
364.9637, 4943.573
365.4458, 5026.617
365.9279, 5068.663
366.4100, 5062.305
366.8922, 5012.842
367.3743, 4935.196
367.8564, 4835.550
368.3385, 4701.787
368.8206, 4518.810
369.3027, 4306.160
369.7849, 4078.683
370.2670, 3843.124
370.7491, 3612.977
371.2312, 3405.997
371.7133, 3223.999
372.1954, 3070.364
372.6776, 2936.382
373.1597, 2835.245
373.6418, 2779.002
374.1239, 2764.467
374.6060, 2778.288
375.0881, 2812.099
375.5703, 2865.329
376.0524, 2920.470
376.5345, 2994.675
377.0166, 3051.826
377.4987, 3091.740
377.9808, 3107.423
378.4630, 3091.202
378.9451, 3039.577
379.4272, 2952.964
379.9093, 2831.220
380.3914, 2658.808
380.8735, 2472.215
381.3557, 2256.888
381.8378, 2040.846
382.3199, 1839.162
382.8020, 1655.816
383.2841, 1492.630
383.7662, 1352.739
384.2484, 1236.560
384.7305, 1137.011
385.2126, 1061.925
385.6947, 996.5902
386.1768, 938.0932
386.6589, 886.0776
387.1411, 840.7216
387.6232, 802.1523
388.1053, 769.8208
388.5874, 741.9213
389.0695, 717.9913
389.5516, 699.7030
390.0338, 686.9950
390.5159, 679.1478
390.9980, 675.4479
391.4801, 675.7215
391.9622, 681.0134
392.4443, 693.2692
392.9265, 712.9236
393.4086, 735.3473
393.8907, 763.1972
394.3728, 790.6323
394.8549, 816.7781
395.3370, 840.2160
395.8192, 856.5746
396.3013, 865.0998
396.7834, 864.3577
397.2655, 849.1343
397.7476, 818.0015
398.2297, 776.0905
398.7119, 720.7021
399.1940, 657.8024
399.6761, 593.5961
400.1582, 527.5957
400.6403, 465.0963
401.1224, 411.3863
401.6046, 365.9342
402.0867, 327.2122
402.5688, 296.0504
403.0509, 270.3874
403.5330, 247.3588
404.0151, 226.9248
404.4973, 208.6698
404.9794, 193.0367
405.4615, 179.2948
405.9436, 166.2642
406.4257, 153.9321
406.9078, 142.0798
407.3900, 130.4119
407.8721, 119.2010
408.3542, 109.3127
408.8363, 101.2156
409.3184, 94.16187
409.8005, 88.27356
410.2827, 83.20959
410.7648, 78.00372
411.2469, 72.27142
411.7290, 66.07440
412.2111, 59.49445
412.6932, 52.40051
413.1754, 45.41150
413.6575, 38.21161
414.1396, 31.40131
414.6217, 25.32367
415.1038, 20.13855
415.5859, 16.41058
416.0681, 15.10236
416.5502, 16.63495
417.0323, 15.47296
417.5144, 9.567810
417.9965, 3.662537
418.4786, 0.5615230
418.9608, 3.394714
419.4429, 5.627747
419.9250, 7.632263
420.4071, 9.345032
420.8892, 10.62280
421.3713, 11.13245
421.8535, 11.64459
422.3356, 12.28882
422.8177, 12.88873
423.2998, 13.22754
423.7819, 13.33966
424.2640, 13.48755
424.7462, 14.06604
425.2283, 15.16626
425.7104, 15.29547
426.1925, 13.15417
426.6746, 11.46967
427.1567, 11.15204
427.6389, 11.74921
428.1210, 12.76434
428.6031, 14.14270
429.0852, 15.10663
429.5673, 13.52234
430.0494, 8.249878
430.5316, 4.545898
431.0137, 5.243652
431.4958, 6.861511
431.9779, 7.142212
432.4600, 5.979980
432.9421, 4.848816
433.4243, 5.094238
433.9064, 6.359131
434.3885, 7.055847
434.8706, 6.974976
435.3527, 6.662537
435.8348, 6.134521
436.3170, 5.673706
436.7991, 5.927917
437.2812, 7.578430
437.7633, 9.258179
438.2454, 9.638306
438.7275, 8.851257
439.2097, 7.667969
439.6918, 6.101624
440.1739, 4.605530
440.6560, 4.054321
441.1381, 4.553833
441.6202, 4.733765
442.1024, 3.647217
442.5845, 2.334412
443.0666, 2.282715
443.5487, 3.525269
444.0308, 4.426758
444.5129, 3.549194
444.9951, 1.186646
445.4772, 0.2170410
445.9593, 2.256531
446.4414, 3.579529
446.9235, 2.573669
447.4056, 0.2772830
447.8878, 1.814819
448.3699, 3.179565
448.8520, 4.072571
449.3341, 4.862793
449.8162, 5.540222
450.2983, 6.155029
450.7805, 6.353516
451.2626, 6.808228
451.7447, 7.972351
452.2268, 9.706116
452.7089, 11.57806
453.1910, 13.30890
453.6732, 14.93487
454.1553, 16.62085
454.6374, 18.42767
455.1195, 20.19110
455.6016, 22.19977
456.0837, 23.96606
456.5659, 24.77411
457.0480, 24.61035
457.5301, 24.59821
458.0122, 26.18292
458.4943, 29.32104
458.9764, 31.64392
459.4586, 32.47845
459.9407, 33.40680
460.4228, 35.39783
460.9049, 38.00189
461.3870, 40.49756
461.8691, 42.82294
462.3513, 44.63531
462.8334, 45.37811
463.3155, 45.07941
463.7976, 44.45276
464.2797, 43.43842
464.7618, 42.52576
465.2440, 42.58051
465.7261, 43.63721
466.2082, 44.05505
466.6903, 42.54004
467.1724, 40.48053
467.6545, 39.52637
468.1367, 39.80017
468.6188, 40.75995
469.1009, 42.30969
469.5830, 44.19147
470.0651, 45.09656
470.5472, 44.41998
471.0294, 43.68744
471.5115, 43.16730
471.9936, 42.85388
472.4757, 42.66791
472.9578, 42.61194
473.4399, 42.93182
473.9221, 44.10754
474.4042, 46.57385
474.8863, 47.29797
475.3684, 44.28497
475.8505, 41.85712
476.3326, 41.99860
476.8148, 43.69159
477.2969, 45.19659
477.7790, 45.67676
478.2611, 45.45648
478.7432, 45.18335
479.2253, 44.84705
479.7075, 44.59143
480.1896, 44.32532
480.6717, 44.22992
481.1538, 44.68250
481.6359, 45.51123
482.1180, 45.97589
482.6002, 45.25812
483.0823, 43.86713
483.5644, 43.48755
484.0465, 44.55798
484.5286, 45.54938
485.0107, 45.66003
485.4929, 45.25903
485.9750, 44.75409
486.4571, 44.15131
486.9392, 43.55356
487.4213, 43.08539
487.9034, 42.99066
488.3856, 43.45526
488.8677, 44.37030
489.3498, 45.00842
489.8319, 44.73978
490.3140, 43.71326
490.7961, 43.13129
491.2783, 43.21509
491.7604, 43.28644
492.2425, 43.09122
492.7246, 42.75720
493.2067, 42.37161
493.6888, 41.97433
494.1710, 41.79712
494.6531, 42.28632
495.1352, 43.95770
495.6173, 44.23953
496.0994, 42.65390
496.5815, 40.57526
497.0637, 38.00848
497.5458, 35.54355
498.0279, 34.32214
498.5100, 35.03128
498.9921, 36.71353
499.4742, 37.09988
499.9564, 35.81421
500.4385, 34.45328
500.9206, 32.50934
501.4027, 30.90143
501.8848, 30.65744
502.3669, 31.65491
502.8491, 32.61371
503.3312, 32.55597
503.8133, 31.49463
504.2954, 29.80533
504.7775, 27.44775
505.2596, 25.62643
505.7418, 25.14822
506.2239, 25.29807
506.7060, 24.98975
507.1881, 23.97894
507.6702, 23.29160
508.1523, 23.87991
508.6345, 24.96085
509.1166, 25.20093
509.5987, 24.43237
510.0808, 23.42722
510.5629, 22.75897
511.0450, 22.39371
511.5272, 21.99911
512.0093, 21.52979
512.4914, 21.08600
512.9735, 20.53299
513.4556, 20.08252
513.9377, 20.08548
514.4199, 20.58020
514.9020, 21.16949
515.3841, 21.44302
515.8662, 21.48178
516.3483, 21.00684
516.8304, 19.06760
517.3126, 17.55408
517.7947, 17.35071
518.2768, 17.83118
518.7589, 17.99072
519.2410, 17.41516
519.7231, 16.61780
520.2053, 16.30569
520.6874, 16.49609
521.1695, 16.89062
521.6516, 17.66486
522.1337, 18.35425
522.6158, 18.57404
523.0980, 18.46658
523.5801, 18.44608
524.0622, 18.84766
524.5443, 19.19705
525.0264, 18.86349
525.5085, 17.96896
525.9907, 17.22031
526.4728, 16.88080
526.9549, 16.77841
527.4370, 16.70505
527.9191, 16.67401
528.4012, 16.47452
528.8834, 15.92755
529.3655, 15.34384
529.8476, 14.85831
530.3297, 14.51547
530.8118, 14.50989
531.2939, 14.99658
531.7761, 15.59445
532.2582, 15.20493
532.7403, 12.50357
533.2224, 11.17233
533.7045, 12.21744
534.1866, 13.65469
534.6688, 14.40723
535.1509, 14.49368
535.6330, 14.37543
536.1151, 14.29111
536.5972, 14.29181
537.0793, 14.64310
537.5615, 15.55039
538.0436, 15.95831
538.5257, 15.06897
539.0078, 13.95062
539.4899, 13.56793
539.9720, 13.92050
540.4542, 14.33502
540.9363, 14.71683
541.4184, 14.86920
541.9005, 14.29523
542.3826, 13.03171
542.8647, 12.01877
543.3469, 11.79590
543.8290, 12.08093
544.3111, 12.16092
544.7932, 11.98001
545.2753, 11.76096
545.7574, 11.22675
546.2396, 10.88287
546.7217, 11.47226
547.2038, 12.76965
547.6859, 13.65005
548.1680, 13.24695
548.6501, 11.94702
549.1323, 11.49655
549.6144, 12.48911
550.0965, 13.32983
550.5786, 13.82733
551.0607, 14.14554
551.5428, 14.35571
552.0250, 14.49176
552.5071, 14.61935
552.9892, 14.81659
553.4713, 15.03189
553.9534, 15.20102
554.4355, 15.39621
554.9177, 15.11606
555.3998, 13.79550
555.8819, 12.15152
556.3640, 11.00876
556.8461, 10.34473
557.3282, 10.47305
557.8104, 12.16907
558.2925, 14.33011
558.7746, 15.66907
559.2567, 16.15060
559.7388, 16.30069
560.2209, 16.42404
560.7031, 16.46170
561.1852, 16.22537
561.6673, 15.48080
562.1494, 14.76324
562.6315, 13.77673
563.1136, 13.05228
563.5958, 13.20898
564.0779, 14.04602
564.5600, 14.80832
565.0421, 14.99777
565.5242, 14.65677
566.0063, 13.70258
566.4885, 11.58182
566.9706, 10.48691
567.4527, 12.24200
567.9348, 14.22552
568.4169, 14.44241
568.8990, 13.02063
569.3812, 11.67416
569.8633, 11.32077
570.3454, 11.55780
570.8275, 12.08838
571.3096, 12.84717
571.7917, 12.93106
572.2739, 11.78311
572.7560, 10.03931
573.2381, 8.760681
573.7202, 7.913574
574.2023, 7.583130
574.6844, 8.380707
575.1666, 9.164978
575.6487, 9.051453
576.1308, 8.269745
576.6129, 7.456268
577.0950, 6.917419
577.5771, 6.744659
578.0593, 7.365967
578.5414, 9.607239
579.0235, 10.37744
579.5056, 7.562195
579.9877, 5.069946
580.4698, 5.161407
580.9520, 6.931366
581.4341, 8.064087
581.9162, 7.345367
582.3983, 5.928223
582.8804, 5.319183
583.3625, 5.446503
583.8447, 5.617737
584.3268, 5.696533
584.8089, 5.732910
585.2910, 5.787079
585.7731, 5.853729
586.2552, 5.855286
586.7374, 5.561737
587.2195, 5.436462
587.7016, 6.107544
588.1837, 7.014282
588.6658, 6.914734
589.1479, 5.508392
589.6301, 4.105743
590.1122, 4.489014
590.5943, 6.963593
591.0764, 8.174866
591.5585, 7.001892
592.0406, 5.845215
592.5228, 5.107391
593.0049, 4.753876
593.4870, 4.852448
593.9691, 5.397858
594.4512, 5.900726
594.9333, 5.807495
595.4155, 5.265778
595.8976, 4.809418
596.3797, 4.365021
596.8618, 4.498901
597.3439, 6.103485
597.8260, 8.312836
598.3082, 8.950287
598.7903, 7.289368
599.2724, 5.870972
599.7545, 5.667084
600.2366, 6.017426
600.7188, 6.464050
601.2009, 6.832123
601.6830, 6.633362
602.1651, 5.440582
602.6472, 3.699738
603.1293, 3.138214
603.6115, 4.708038
604.0936, 5.754700
604.5757, 5.671997
605.0578, 5.403381
605.5399, 5.410156
606.0220, 5.739258
606.5042, 6.397705
606.9863, 7.660645
607.4684, 8.804993
607.9505, 8.334045
608.4326, 6.305542
608.9147, 4.910736
609.3969, 4.905579
609.8790, 5.422638
610.3611, 5.558502
610.8432, 5.339661
611.3253, 5.248596
611.8074, 5.429504
612.2896, 5.675385
612.7717, 6.026642
613.2538, 6.353424
613.7359, 6.335938
614.2180, 5.969025
614.7001, 5.546936
615.1823, 5.450653
615.6644, 5.552979
616.1465, 5.545502
616.6286, 5.507568
617.1107, 5.354126
617.5928, 4.898254
618.0750, 4.438324
618.5571, 4.267548
619.0392, 4.431427
619.5213, 4.801605
620.0034, 5.681732
620.4855, 6.638397
620.9677, 6.437469
621.4498, 4.988495
621.9319, 3.850128
622.4140, 3.924652
622.8961, 4.624146
623.3782, 4.611023
623.8604, 3.466187
624.3425, 3.095276
624.8246, 4.177032
625.3067, 5.640991
625.7888, 7.237640
626.2709, 8.552979
626.7531, 8.660767
627.2352, 7.124420
627.7173, 5.068878
628.1994, 4.797729
628.6815, 6.823547
629.1636, 7.703400
629.6458, 6.394226
630.1279, 5.020813
630.6100, 3.843781
631.0921, 3.501312
631.5742, 5.807404
632.0563, 12.64499
632.5385, 17.79709
633.0206, 14.91263
633.5027, 7.655426
633.9848, 3.209534
634.4669, 2.619873
634.9490, 3.656097
635.4312, 5.028687
635.9133, 6.498688
636.3954, 6.908356
636.8775, 5.102356
637.3596, 3.753479
637.8417, 3.248718
638.3239, 2.987122
638.8060, 2.365509
639.2881, 1.564667
639.7702, 1.401123
640.2523, 2.537262
640.7344, 4.133118
641.2166, 4.450409
641.6987, 3.424683
642.1808, 2.456421
642.6629, 1.712769
643.1450, 1.259247
643.6271, 1.265717
644.1093, 1.629608
644.5914, 2.022339
645.0735, 2.546478
645.5556, 2.923615
646.0377, 3.002197
646.5198, 2.865326
647.0020, 2.575623
647.4841, 2.175507
647.9662, 1.791443
648.4483, 1.540375
648.9304, 1.405457
649.4125, 1.231598
649.8947, 0.9384160
650.3768, 0.7664490
650.8589, 0.5447690
651.3410, 0.6197810
651.8231, 1.656647
652.3052, 3.359161
652.7874, 4.304199
653.2695, 3.388641
653.7516, 1.736572
654.2337, 0.6012270
654.7158, 7.6629996E-02
655.1979, 0.5878910
655.6801, 1.032837
656.1622, 1.207581
656.6443, 0.7739560
657.1264, 0.3299870
657.6085, 0.8219910
658.0906, 8.5205004E-02
658.5728, 0.3999020
659.0549, 0.1751710
659.5370, 0.8972780
660.0191, 0.6244510
660.5012, 0.6710210
660.9833, 1.919342
661.4655, 2.210632
661.9476, 1.812103
662.4297, 1.457367
662.9118, 1.119446
663.3939, 1.075348
663.8760, 1.640717
664.3582, 2.258087
664.8403, 2.194489
665.3224, 1.509216
665.8045, 0.8381650
666.2866, 6.4940996E-02
666.7687, 0.4445190
667.2509, 0.1763920
667.7330, 0.3913880
668.2151, 0.2968750
668.6972, 0.6248170
669.1793, 1.398987
669.6614, 0.8544310
670.1436, 0.8548580
670.6257, 1.347260
671.1078, 0.4209590
671.5899, 1.240967
672.0720, 1.202423
672.5541, 3.943939
673.0363, 4.398315
673.5184, 2.632538
674.0005, 0.9778140
674.4826, 0.4770200
674.9647, 0.4918210
675.4468, 0.5692750
675.9290, 0.6358950
676.4111, 0.4256900
676.8932, 0.1503910
677.3753, 0.7423400
677.8574, 0.9385070
678.3395, 0.7268680
678.8217, 0.4430850
679.3038, 3.2531999E-02
679.7859, 0.4225160
680.2680, 0.5672610
680.7501, 0.6750790
681.2322, 1.023254
681.7144, 1.574463
682.1965, 1.946991
682.6786, 1.901520
683.1607, 1.511597
683.6428, 0.7127380
684.1249, 0.4196470
684.6071, 1.154327
685.0892, 1.194611
685.5713, 1.057526
686.0534, 1.385071
686.5355, 2.224304
687.0176, 2.600830
687.4998, 2.142181
687.9819, 1.776337
688.4640, 1.614563
688.9461, 1.681824
689.4282, 2.177551
689.9103, 2.984924
690.3925, 3.524933
690.8746, 3.309875
691.3567, 2.667755
691.8388, 2.439331
692.3209, 2.651215
692.8030, 2.609131
693.2852, 2.004120
693.7673, 1.343719
694.2494, 1.198853
694.7315, 1.531097
695.2136, 1.676880
695.6957, 1.240265
696.1779, 1.068512
696.6600, 1.798309
697.1421, 2.740936
697.6242, 2.988007
698.1063, 2.546143
698.5884, 2.214935
699.0706, 2.622559
699.5527, 3.535065
700.0348, 4.369202
700.5169, 5.164001
700.9990, 5.566223
701.4811, 5.261475
701.9633, 4.887970
702.4454, 5.168884
702.9275, 5.854919
703.4096, 6.058197
703.8917, 5.087097
704.3738, 4.407959
704.8560, 4.951538
705.3381, 5.931549
705.8202, 6.417358
706.3023, 6.334473
706.7844, 6.089386
707.2665, 5.943542
707.7487, 5.903198
708.2308, 5.996460
708.7129, 6.234741
709.1950, 6.584229
709.6771, 7.356689
710.1592, 7.810699
710.6414, 6.967529
711.1235, 5.556824
711.6056, 5.273499
712.0877, 7.013458
712.5698, 8.442596
713.0519, 7.929657
713.5341, 6.775360
714.0162, 6.590057
714.4983, 7.354492
714.9804, 8.137512
715.4625, 8.405518
715.9446, 8.340973
716.4268, 8.265503
716.9089, 8.112671
717.3910, 8.352173
717.8731, 9.437653
718.3552, 10.28589
718.8373, 10.33130
719.3195, 9.863892
719.8016, 9.167908
720.2837, 8.182526
720.7658, 7.526917
721.2479, 7.669800
721.7300, 8.125214
722.2122, 8.250549
722.6943, 8.237976
723.1764, 8.905518
723.6585, 10.60339
724.1406, 12.58096
724.6227, 13.66702
725.1049, 13.78110
725.5870, 13.71805
726.0691, 13.17752
726.5512, 13.00537
727.0333, 13.98773
727.5154, 15.12720
727.9976, 15.30771
728.4797, 14.48001
728.9618, 13.85272
729.4439, 14.06644
729.9260, 14.34750
730.4081, 13.84027
730.8903, 12.96945
731.3724, 12.73190
731.8545, 13.32025
732.3366, 13.85999
732.8187, 13.37677
733.3008, 12.00754
733.7830, 11.49872
734.2651, 12.47867
734.7472, 13.01361
735.2293, 12.35580
735.7114, 11.32959
736.1935, 10.27216
736.6757, 9.309509
737.1578, 8.837677
737.6399, 9.390045
738.1220, 9.931030
738.6041, 9.826447
739.0862, 9.218323
739.5684, 8.236725
740.0505, 6.974884
740.5326, 5.634003
741.0147, 4.309082
741.4968, 3.188965
741.9789, 2.858826
742.4611, 3.506653
742.9432, 4.048737
743.4253, 4.736664
743.9074, 4.837677
744.3895, 3.481506
744.8716, 1.406433
745.3538, 3.3417001E-02
745.8359, 0.5628050
746.3180, 0.6745910
746.8001, 0.5365910
747.2822, 0.1220700
747.7643, 0.7767030
748.2465, 1.987274
748.7286, 3.114227
749.2107, 3.974640
749.6928, 4.362579
750.1749, 3.724670
750.6570, 1.968384
751.1392, 1.192169
751.6213, 1.794189
752.1034, 2.461853
752.5855, 2.751801
753.0676, 2.791901
753.5497, 2.685120
754.0319, 2.424316
754.5140, 2.266571
754.9961, 2.465271
755.4782, 2.567108
755.9603, 2.125427
756.4424, 1.479065
756.9246, 1.176819
757.4067, 1.300293
757.8888, 1.493774
758.3709, 1.406006
758.8530, 1.193115
759.3351, 1.505676
759.8173, 2.445374
760.2994, 2.921814
760.7815, 2.477783
761.2636, 1.940918
761.7457, 2.157074
762.2278, 2.906006
762.7100, 3.091217
763.1921, 2.119049
763.6742, 1.476837
764.1563, 1.880585
764.6384, 2.446136
765.1205, 2.393433
765.6027, 1.867767
766.0848, 1.421600
766.5669, 1.305878
767.0490, 1.417114
767.5311, 1.806702
768.0132, 2.351288
768.4954, 2.235352
768.9775, 1.318420
769.4596, 0.5344850
769.9417, 0.3616330
770.4238, 0.5238650
770.9059, 0.5336610
771.3881, 0.3099980
771.8702, 0.2509160
772.3523, 0.4189150
772.8344, 0.6639400
773.3165, 0.9808650
773.7986, 1.318451
774.2808, 1.697815
774.7629, 2.075531
775.2450, 2.220245
775.7271, 1.748993
776.2092, 1.178253
776.6913, 1.354889
777.1735, 2.122559
777.6556, 2.908569
778.1377, 3.590118
778.6198, 4.039307
779.1019, 4.143463
779.5840, 3.925903
780.0662, 3.472748
780.5483, 2.467834
781.0304, 1.836914
781.5125, 1.898193
781.9946, 2.073486
782.4767, 2.255096
782.9589, 2.306030
783.4410, 1.892029
783.9231, 0.7916870
784.4052, 5.5023000E-02
784.8873, 0.2325440
785.3694, 0.8778690
785.8516, 0.7773440
786.3337, 0.1390080
786.8158, 6.4392000E-02
787.2979, 0.5537410
787.7800, 1.482239
788.2621, 2.100250
788.7443, 2.409332
789.2264, 2.467590
789.7085, 2.161743
790.1906, 1.969666
790.6727, 1.694244
791.1548, 1.782806
791.6370, 3.297424
792.1191, 5.919678
792.6012, 6.949371
793.0833, 4.579620
793.5654, 2.324860
794.0475, 1.474579
794.5297, 1.441040
795.0118, 1.904175
795.4939, 2.603638
795.9760, 3.028870
796.4581, 2.885468
796.9402, 2.452332
797.4224, 2.084076
797.9045, 1.782867
798.3866, 1.551849
798.8687, 1.373962
799.3508, 1.451691
799.8329, 1.968597
800.3151, 2.680359
800.7972, 3.157135
801.2793, 3.411133
801.7614, 3.363403
802.2435, 2.455719
802.7256, 1.953033
803.2078, 2.646454
803.6899, 3.608490
804.1720, 3.860138
804.6541, 3.367889
805.1362, 2.811066
805.6183, 2.548401
806.1005, 2.389038
806.5826, 2.104614
807.0647, 1.807434
807.5468, 1.808044
808.0289, 2.132355
808.5110, 2.478180
808.9932, 2.631500
809.4753, 2.684052
809.9574, 2.915466
810.4395, 3.412018
810.9216, 3.690186
811.4037, 3.684204
811.8859, 3.526093
812.3680, 3.291107
812.8501, 2.935883
813.3322, 2.169922
813.8143, 0.7907100
814.2964, 0.4130250
814.7786, 2.851685
815.2607, 4.854828
815.7428, 3.801575
816.2249, 1.465546
816.7070, 0.4800420
817.1891, 1.247437
817.6713, 2.369141
818.1534, 2.840027
818.6355, 2.921478
819.1176, 3.091827
819.5997, 3.337036
820.0818, 3.527161
820.5640, 3.632568
821.0461, 3.723175
821.5282, 3.856995
822.0103, 4.011353
822.4924, 4.097260
822.9745, 3.990540
823.4567, 4.098907
823.9388, 5.107452
824.4209, 5.529999
824.9030, 4.321747
825.3851, 2.597137
825.8672, 1.905579
826.3494, 2.440308
826.8315, 2.817230
827.3136, 2.194977
827.7957, 1.350037
828.2778, 0.7486880
828.7599, 0.4705810
829.2421, 0.8283080
829.7242, 1.765381
830.2063, 2.585938
830.6884, 2.731659
831.1705, 2.453705
831.6526, 2.312622
832.1348, 2.293396
832.6169, 2.679657
833.0990, 3.760406
833.5811, 4.372284
834.0632, 3.596466
834.5453, 2.072662
835.0275, 1.184906
835.5096, 1.128937
835.9917, 1.147797
836.4738, 1.126251
836.9559, 1.303528
837.4380, 2.037415
837.9202, 2.850616
838.4023, 3.188904
838.8844, 3.018005
839.3665, 2.737183
839.8486, 2.460968
840.3307, 2.305237
840.8129, 2.665802
841.2950, 3.148987
841.7771, 2.713379
842.2592, 1.375183
842.7413, 0.4003300
843.2234, 0.5988460
843.7056, 1.434845
844.1877, 1.788147
844.6698, 1.603027
845.1519, 1.864410
845.6340, 2.950165
846.1161, 3.368835
846.5983, 2.071716
847.0804, 0.2073670
847.5625, 0.8184810
848.0446, 1.059814
848.5267, 0.5975340
849.0089, 1.886078
849.4910, 3.378113
849.9731, 1.791656
850.4552, 0.1770020
850.9373, 0.3811650
851.4194, 2.823822
851.9016, 4.192871
852.3837, 2.908905
852.8658, 1.329834
853.3479, 1.855377
853.8300, 3.456909
854.3121, 4.412323
854.7943, 4.600098
855.2764, 4.286438
855.7585, 3.577850
856.2406, 2.791168
856.7227, 2.358551
857.2048, 2.197479
857.6870, 1.807037
858.1691, 1.052765
858.6512, 0.6217040
859.1333, 0.7817990
859.6154, 1.208588
860.0975, 1.636108
860.5797, 2.015991
861.0618, 2.078278
861.5439, 1.380432
862.0260, 1.127930
862.5081, 1.644226
862.9902, 2.428589
863.4724, 3.534729
863.9545, 4.576080
864.4366, 4.966858
864.9187, 4.572876
865.4008, 3.835968
865.8829, 2.494232
866.3651, 1.411072
866.8472, 1.945007
867.3293, 3.450409
867.8114, 4.428467
868.2935, 4.545471
868.7756, 4.115906
869.2578, 3.231049
869.7399, 2.269470
870.2220, 2.268829
870.7041, 3.292084
871.1862, 4.031036
871.6683, 4.292969
872.1505, 4.642700
872.6326, 5.664642
873.1147, 6.594269
873.5968, 5.887939
874.0789, 2.937714
874.5610, 1.663086
875.0432, 3.284698
875.5253, 4.920868
876.0074, 6.516205
876.4895, 7.318146
876.9716, 6.153564
877.4537, 3.652771
877.9359, 2.168213
878.4180, 2.867310
878.9001, 3.776733
879.3822, 3.931885
879.8643, 3.472839
880.3464, 2.015320
880.8286, 0.1356200
881.3107, 0.6489870
881.7928, 0.1532900
882.2749, 1.384369
882.7570, 1.786560
883.2391, 1.649261
883.7213, 1.998474
884.2034, 2.784302
884.6855, 2.980194
885.1676, 2.240631
885.6497, 1.730347
886.1318, 2.474274
886.6140, 4.014954
887.0961, 4.813110
887.5782, 4.769501
888.0603, 4.185333
888.5424, 2.169128
889.0245, 0.8403020
889.5067, 1.617035
889.9888, 3.176971
890.4709, 4.038025
890.9530, 4.140717
891.4351, 4.159241
891.9172, 4.167419
892.3994, 4.189606
892.8815, 4.337189
893.3636, 4.423004
893.8457, 4.253693
894.3278, 3.854553
894.8099, 3.303131
895.2921, 2.599640
895.7742, 2.053467
896.2563, 2.151917
896.7384, 2.508118
897.2205, 2.416412
897.7026, 1.955688
898.1848, 1.575500
898.6669, 1.411102
899.1490, 1.244415
899.6311, 0.8364560
900.1132, 0.2859500
900.5953, 3.6285002E-02
901.0775, 0.1291200
901.5596, 0.1469420
902.0417, 0.9635010
902.5238, 1.639954
903.0059, 1.781921
903.4880, 1.505554
903.9702, 0.9073490
904.4523, 0.3965150
904.9344, 0.4730220
905.4165, 2.312897
905.8986, 4.133270
906.3807, 3.590790
906.8629, 2.275635
907.3450, 1.273987
907.8271, 0.6677550
908.3092, 0.3721620
908.7913, 0.4811100
909.2734, 0.7742000
909.7556, 1.574066
910.2377, 2.139343
910.7198, 1.263367
911.2019, 0.2023620
911.6840, 0.2118840
912.1661, 1.664459
912.6483, 3.216553
913.1304, 2.124695
913.6125, 2.6427999E-02
914.0946, 0.3654480
914.5767, 0.5098570
915.0588, 1.455322
915.5410, 2.186951
916.0231, 2.162628
916.5052, 0.9273990
916.9873, 0.5619200
917.4694, 0.1103520
917.9515, 2.401825
918.4337, 3.147766
918.9158, 1.646393
919.3979, 0.5344850
919.8800, 0.8146060
920.3621, 1.635986
920.8442, 2.118805
921.3264, 2.250122
921.8085, 2.574951
922.2906, 3.725159
922.7727, 4.094666
923.2548, 2.891449
923.7369, 1.712006
924.2191, 1.483093
924.7012, 1.672760
925.1833, 1.357208
925.6654, 0.4046940
926.1475, 0.2034300
926.6296, 0.1570430
927.1118, 0.5698850
927.5939, 0.3257140
928.0760, 3.2649999E-03
928.5581, 0.4671020
929.0402, 1.501709
929.5223, 2.090485
930.0045, 1.757538
930.4866, 1.125031
930.9687, 0.6724850
931.4508, 0.3055730
931.9329, 0.2087100
932.4150, 0.7440490
932.8972, 0.9450990
933.3793, 0.7190550
933.8614, 5.0292999E-02
934.3435, 1.690552
934.8256, 3.493622
935.3077, 3.228424
935.7899, 1.114624
936.2720, 0.7536010
936.7541, 2.720062
937.2362, 4.063751
937.7183, 3.152405
938.2004, 1.439209
938.6826, 1.147705
939.1647, 2.290741
939.6468, 3.047058
940.1289, 3.254761
940.6110, 3.329315
941.0931, 3.446167
941.5753, 3.323700
942.0574, 2.489502
942.5395, 1.304504
943.0216, 0.7826230
943.5037, 1.163666
943.9858, 1.497070
944.4680, 1.769928
944.9501, 1.921021
945.4322, 1.548981
945.9143, 1.277191
946.3964, 2.038147
946.8785, 3.571228
947.3607, 4.451080
947.8428, 4.043884
948.3249, 3.259857
948.8070, 2.068848
949.2891, 1.173218
949.7712, 1.449524
950.2534, 2.476532
950.7355, 3.467438
951.2176, 4.162140
951.6997, 4.533722
952.1818, 4.407806
952.6639, 4.142609
953.1461, 3.986877
953.6282, 4.131989
954.1103, 5.608978
954.5924, 8.091278
955.0745, 9.137756
955.5566, 7.522156
956.0388, 4.871185
956.5209, 3.127014
957.0030, 2.285278
957.4851, 2.659576
957.9672, 4.240082
958.4493, 5.015869
958.9315, 4.443909
959.4136, 3.906097
959.8957, 4.496307
960.3778, 5.617096
960.8599, 5.636414
961.3420, 4.225433
961.8242, 3.418610
962.3063, 3.410431
962.7884, 3.473633
963.2705, 3.589569
963.7526, 3.433868
964.2347, 2.460022
964.7169, 0.8776550
965.1990, 0.2231450
965.6811, 1.407776
966.1632, 2.139191
966.6453, 2.007050
967.1274, 1.893463
967.6096, 2.323273
968.0917, 2.892059
968.5738, 2.995422
969.0559, 2.614105
969.5380, 2.449341
970.0201, 3.082886
970.5023, 3.431030
970.9844, 2.960846
971.4665, 2.184540
971.9486, 1.195435
972.4307, 0.3630370
972.9128, 0.3598330
973.3950, 1.338043
973.8771, 2.039795
974.3592, 1.335083
974.8413, 0.3833310
975.3234, 0.3924560
975.8055, 0.8520510
976.2877, 1.062164
976.7698, 0.9187930
977.2519, 0.4253540
977.7340, 0.4301760
978.2161, 1.067535
978.6982, 0.5796510
979.1804, 0.3989560
979.6625, 0.5204470
980.1446, 6.0332999E-02
980.6267, 5.3649999E-02
981.1088, 0.6915280
981.5909, 1.552032
982.0731, 2.418762
982.5552, 2.958588
983.0373, 2.329071
983.5194, 0.7354430
984.0015, 0.3651120
984.4836, 0.8919070
984.9658, 1.013489
985.4479, 0.7701720
985.9300, 0.1637570
986.4121, 0.9616090
986.8942, 2.263428
987.3763, 2.284821
987.8585, 0.6733400
988.3406, 0.3139650
988.8227, 1.889038
989.3048, 2.772339
989.7869, 1.468536
990.2690, 0.2871700
990.7512, 0.2847290
991.2333, 1.320831
991.7154, 2.261566
992.1975, 2.144318
992.6796, 2.069153
993.1617, 2.192108
993.6439, 2.233887
994.1260, 1.934357
994.6081, 1.577026
995.0902, 1.665161
995.5723, 2.228851
996.0544, 2.300385
996.5366, 1.224945
997.0187, 0.5727540
997.5008, 1.084991
997.9829, 1.580261
998.4650, 1.091278
998.9471, 0.1946720
999.4293, 1.5045000E-02
999.9114, 0.6390080
1000.393, 1.149200
1000.876, 1.307983
1001.358, 1.183899
1001.840, 0.2791440
1002.322, 0.4554140
1002.804, 0.1139830
1003.286, 1.479889
1003.768, 2.376678
1004.250, 2.445892
1004.733, 2.279236
1005.215, 2.129578
1005.697, 1.932648
1006.179, 1.461670
1006.661, 1.019836
1007.143, 1.018280
1007.625, 1.437805
1008.107, 2.117401
1008.589, 3.019073
1009.072, 3.652008
1009.554, 3.493378
1010.036, 2.947235
1010.518, 2.258728
1011.000, 1.626068
1011.482, 1.463867
1011.964, 1.763367
1012.446, 2.142761
1012.929, 2.394440
1013.411, 2.655090
1013.893, 3.093933
1014.375, 3.663910
1014.857, 4.410645
1015.339, 5.195190
1015.821, 5.508911
1016.303, 5.267426
1016.785, 4.854858
1017.268, 4.524261
1017.750, 4.216461
1018.232, 3.883972
1018.714, 3.492340
1019.196, 2.643951
1019.678, 1.459259
1020.160, 1.192596
1020.642, 2.180450
1021.125, 3.288605
1021.607, 3.598389
1022.089, 3.472229
1022.571, 3.782654
1023.053, 4.506500
1023.535, 4.982056
1024.017, 5.169983
1024.499, 5.230621
1024.981, 5.242035
1025.464, 4.974091
1025.946, 4.100800
1026.428, 2.969818
1026.910, 2.862030
1027.392, 3.962921
1027.874, 4.267639
1028.356, 3.508423
1028.838, 2.894043
1029.321, 2.824219
1029.803, 3.091309
1030.285, 3.540039
1030.767, 4.132050
1031.249, 4.781738
1031.731, 5.767670
1032.213, 5.562622
1032.695, 3.458252
1033.177, 1.912292
1033.660, 2.089752
1034.142, 2.732819
1034.624, 2.411591
1035.106, 1.388733
1035.588, 1.363708
1036.070, 2.884460
1036.552, 4.127045
1037.034, 5.136597
1037.516, 5.681824
1037.999, 5.397125
1038.481, 4.912262
1038.963, 5.089203
1039.445, 5.765503
1039.927, 5.493500
1040.409, 3.086182
1040.891, 1.861328
1041.373, 2.773010
1041.855, 3.664398
1042.338, 3.703217
1042.820, 3.359161
1043.302, 2.936066
1043.784, 2.535767
1044.266, 2.739929
1044.748, 4.476166
1045.230, 5.253601
1045.712, 4.161926
1046.195, 3.024719
1046.677, 2.394684
1047.159, 2.208527
1047.641, 2.576569
1048.123, 3.360931
1048.605, 3.767731
1049.087, 3.323395
1049.569, 3.231445
1050.052, 4.159851
1050.534, 4.877899
1051.016, 4.597748
1051.498, 3.968170
1051.980, 3.650421
1052.462, 3.675293
1052.944, 3.895630
1053.426, 4.526825
1053.908, 4.861908
1054.391, 4.396454
1054.873, 3.980530
1055.355, 4.121063
1055.837, 4.564819
1056.319, 5.045227
1056.801, 5.422394
1057.283, 5.397247
1057.765, 4.645508
1058.248, 4.151794
1058.730, 4.366150
1059.212, 4.739380
1059.694, 5.032654
1060.176, 5.191528
1060.658, 4.963165
1061.140, 4.506470
1061.622, 4.603790
1062.104, 5.920563
1062.587, 6.821533
1063.069, 6.154480
1063.551, 5.297119
1064.033, 5.049896
1064.515, 5.100830
1064.997, 4.896912
1065.479, 4.580200
1065.961, 4.908691
1066.443, 6.464478
1066.926, 7.461914
1067.408, 6.461182
1067.890, 5.468719
1068.372, 5.826935
1068.854, 6.818207
1069.336, 7.736725
1069.818, 8.436218
1070.300, 8.771637
1070.782, 8.693298
1071.265, 8.231598
1071.747, 6.884155
1072.229, 5.758942
1072.711, 5.296631
1073.193, 5.600464
1073.675, 7.505341
1074.157, 10.10748
1074.639, 10.97131
1075.122, 9.226776
1075.604, 7.268036
1076.086, 5.852600
1076.568, 4.940521
1077.050, 4.617065
1077.532, 4.693695
1078.014, 5.162933
1078.496, 5.844299
1078.979, 6.438049
1079.461, 6.883514
1079.943, 6.921051
1080.425, 5.654297
1080.907, 4.897156
1081.389, 6.456055
1081.871, 8.307068
1082.353, 8.185699
1082.835, 6.892120
1083.318, 6.549713
1083.800, 7.625061
1084.282, 8.497833
1084.764, 8.281219
1085.246, 7.939850
1085.728, 8.026886
1086.210, 8.138519
1086.692, 7.977722
1087.175, 7.556213
1087.657, 6.823883
1088.139, 5.831421
1088.621, 5.142914
1089.103, 5.020538
1089.585, 5.190826
1090.067, 5.821533
1090.549, 6.408020
1091.031, 6.387115
1091.514, 6.158722
1091.996, 6.501709
1092.478, 7.389832
1092.960, 7.814240
1093.442, 7.265717
1093.924, 6.555237
1094.406, 5.857697
1094.888, 5.217590
1095.370, 4.692230
1095.853, 4.231079
1096.335, 2.476532
1096.817, 0.4332890
1097.299, 3.748352
1097.781, 18.49805
1098.263, 26.82764
1098.745, 17.06689
1099.227, 6.609985
1099.709, 5.079590
1100.192, 7.113037
1100.674, 6.982910
1101.156, 4.923676
1101.638, 3.643463
1102.120, 3.820526
1102.602, 4.150848
1103.084, 4.491577
1103.566, 4.675568
1104.049, 4.507813
1104.531, 4.265594
1105.013, 4.190460
1105.495, 4.226257
1105.977, 4.211578
1106.459, 4.120239
1106.941, 3.996338
1107.423, 3.691864
1107.906, 3.580933
1108.388, 4.022308
1108.870, 4.418274
1109.352, 4.386780
1109.834, 4.045166
1110.316, 3.518127
1110.798, 2.795837
1111.280, 2.408447
1111.762, 3.127045
1112.245, 3.082764
1112.727, 1.205353
1113.209, 0.5079350
1113.691, 0.9268490
1114.173, 0.7456970
1114.655, 0.7956850
1115.137, 1.066711
1115.619, 1.354279
1116.102, 2.213196
1116.584, 2.077332
1117.066, 5.4931998E-02
1117.548, 1.682281
1118.030, 2.669373
1118.512, 2.727448
1118.994, 1.132141
1119.476, 1.453674
1119.958, 2.247589
1120.441, 0.4318240
1120.923, 0.5183720
1121.405, 0.1574100
1121.887, 6.7596003E-02
1122.369, 0.3982240
1122.851, 0.7151490
1123.333, 7.5530998E-02
1123.815, 0.9292910
1124.297, 0.8465580
1124.780, 0.4972840
1125.262, 0.4421690
1125.744, 1.733307
1126.226, 2.468170
1126.708, 0.7266850
1127.190, 1.106659
1127.672, 1.757385
1128.154, 1.679474
1128.636, 1.492249
1129.119, 1.194336
1129.601, 0.7052000
1130.083, 3.2898001E-02
1130.565, 0.3683780
1131.047, 0.2319030
1131.529, 0.3738400
1132.011, 1.513153
1132.493, 2.559662
1132.976, 2.862610
1133.458, 2.622681
1133.940, 2.371643
1134.422, 2.119843
1134.904, 1.967834
1135.386, 1.922272
1135.868, 2.070709
1136.350, 2.426575
1136.833, 2.366180
1137.315, 1.366852
1137.797, 0.2470400
1138.279, 0.4837040
1138.761, 1.719208
1139.243, 2.933807
1139.725, 4.023743
1140.207, 4.454651
1140.689, 4.241669
1141.172, 3.875610
1141.654, 3.609772
1142.136, 4.177490
1142.618, 6.821381
1143.100, 10.25702
1143.582, 13.23727
1144.064, 14.93954
1144.546, 12.39886
1145.029, 7.058411
1145.511, 3.924988
1145.993, 4.286346
1146.475, 5.394958
1146.957, 5.483521
1147.439, 5.319122
1147.921, 5.738403
1148.403, 5.661835
1148.885, 6.219757
1149.368, 5.897278
1149.850, 5.897400
1150.332, 6.244019
1150.814, 6.545380
1151.296, 6.604523
1151.778, 6.787537
1152.260, 7.480225
1152.742, 8.176331
1153.224, 8.580750
1153.707, 8.783081
1154.189, 8.868622
1154.671, 8.835022
1155.153, 8.621033
1155.635, 8.197815
1156.117, 8.145020
1156.599, 9.095978
1157.081, 9.803467
1157.563, 9.692841
1158.046, 9.453491
1158.528, 9.285217
1159.010, 9.350250
1159.492, 10.07208
1159.974, 11.32245
1160.456, 11.96054
1160.938, 11.52469
1161.420, 11.18533
1161.903, 10.92123
1162.385, 10.85956
1162.867, 10.59732
1163.349, 11.77560
1163.831, 10.33237
1164.313, 11.06186
1164.795, 11.12491
1165.277, 10.72678
1165.760, 11.82455
1166.242, 10.90823
1166.724, 10.56973
1167.206, 11.37363
1167.688, 12.24283
1168.170, 12.64893
1168.652, 12.79074
1169.134, 12.93378
1169.616, 13.02875
1170.099, 12.64420
1170.581, 12.97180
1171.063, 11.77524
1171.545, 12.84116
1172.027, 13.29208
1172.509, 12.59351
1172.991, 11.63333
1173.473, 11.04425
1173.956, 10.86707
1174.438, 11.87158
1174.920, 13.42825
1175.402, 12.37747
1175.884, 9.596130
1176.366, 8.641571
1176.848, 9.651978
1177.330, 10.13824
1177.813, 9.170959
1178.295, 8.102234
1178.777, 7.746735
1179.259, 7.983734
1179.741, 9.391937
1180.223, 10.90051
1180.705, 10.41788
1181.187, 8.860413
1181.669, 8.494507
1182.151, 9.585327
1182.634, 10.52032
1183.116, 10.45917
1183.598, 9.952423
1184.080, 9.490143
1184.562, 8.923920
1185.044, 7.575226
1185.526, 6.273804
1186.008, 6.230988
1186.490, 6.911102
1186.973, 6.647888
1187.455, 5.055054
1187.937, 4.658630
1188.419, 7.472534
1188.901, 9.285828
1189.383, 8.381836
1189.865, 7.377319
1190.347, 8.208344
1190.830, 9.082428
1191.312, 7.343628
1191.794, 8.338531
1192.276, 8.882660
1192.758, 8.055237
1193.240, 10.24686
1193.722, 9.435822
1194.204, 8.718048
1194.687, 8.817261
1195.169, 9.075836
1195.651, 9.081421
1196.133, 9.048431
1196.615, 9.461334
1197.097, 10.06778
1197.579, 8.810577
1198.061, 9.311279
1198.543, 9.562408
1199.026, 8.404114
1199.508, 9.630341
1199.990, 7.964783
1200.472, 5.975922
1200.954, 5.653900
1201.436, 6.263062
1201.918, 6.979492
1202.400, 7.666595
1202.883, 7.815582
1203.365, 7.772858
1203.847, 8.705719
1204.329, 10.31854
1204.811, 10.33197
1205.293, 8.079346
1205.775, 8.384491
1206.257, 18.97607
1206.740, 27.12283
1207.222, 20.22702
1207.704, 9.995209
1208.186, 6.292389
1208.668, 6.880646
1209.150, 8.130585
1209.632, 9.252991
1210.114, 9.613190
1210.596, 8.844452
1211.078, 8.043732
1211.561, 7.090332
1212.043, 6.594788
1212.525, 7.167297
1213.007, 7.781982
1213.489, 7.559448
1213.971, 7.143707
1214.453, 7.718719
1214.935, 9.174316
1215.417, 9.432892
1215.900, 8.018372
1216.382, 7.188660
1216.864, 7.098572
1217.346, 7.532623
1217.828, 8.562256
1218.310, 9.388916
1218.792, 9.342743
1219.274, 8.792511
1219.757, 8.362457
1220.239, 8.041656
1220.721, 7.625885
1221.203, 7.187622
1221.685, 7.158325
1222.167, 7.553986
1222.649, 8.215088
1223.131, 9.050476
1223.614, 9.901764
1224.096, 10.69513
1224.578, 11.29910
1225.060, 11.59137
1225.542, 11.59482
1226.024, 11.10468
1226.506, 10.50360
1226.988, 10.36758
1227.470, 10.58633
1227.953, 10.54364
1228.435, 10.06937
1228.917, 9.808014
1229.399, 10.71814
1229.881, 10.85043
1230.363, 8.007019
1230.845, 5.982849
1231.327, 8.453583
1231.810, 11.88254
1232.292, 11.35336
1232.774, 8.099060
1233.256, 7.309540
1233.738, 9.876770
1234.220, 10.97653
1234.702, 10.00629
1235.184, 9.598816
1235.667, 10.46350
1236.149, 10.96182
1236.631, 10.18515
1237.113, 8.965607
1237.595, 8.306335
1238.077, 7.959839
1238.559, 6.974274
1239.041, 6.878815
1239.523, 5.437073
1240.005, 6.203888
1240.488, 6.226379
1240.970, 5.300232
1241.452, 4.470551
1241.934, 4.248779
1242.416, 4.593933
1242.898, 5.863861
1243.380, 7.220398
1243.862, 8.059631
1244.344, 8.322540
1244.827, 7.365112
1245.309, 6.103851
1245.791, 6.394989
1246.273, 8.009705
1246.755, 8.512146
1247.237, 6.795044
1247.719, 5.660248
1248.201, 6.213226
1248.684, 6.759979
1249.166, 7.203674
1249.648, 7.003876
1250.130, 5.228607
1250.612, 3.296661
1251.094, 3.305328
1251.576, 4.863586
1252.058, 5.405975
1252.541, 4.812134
1253.023, 3.968719
1253.505, 2.841492
1253.987, 2.186249
1254.469, 2.181763
1254.951, 2.427063
1255.433, 2.699493
1255.915, 2.970612
1256.397, 3.295654
1256.880, 3.470367
1257.362, 2.774200
1257.844, 1.802795
1258.326, 2.048706
1258.808, 2.946472
1259.290, 2.641357
1259.772, 1.232605
1260.254, 0.8469850
1260.737, 2.465820
1261.219, 4.182404
1261.701, 5.386963
1262.183, 5.915283
1262.665, 5.328613
1263.147, 4.424316
1263.629, 3.442749
1264.111, 2.713715
1264.594, 2.996613
1265.076, 2.315399
1265.558, 1.802673
1266.040, 1.969849
1266.522, 0.9537050
1267.004, 0.8989560
1267.486, 1.414886
1267.968, 2.680634
1268.450, 3.111084
1268.932, 1.742432
1269.415, 0.3164060
1269.897, 0.9929500
1270.379, 2.577332
1270.861, 1.612183
1271.343, 2.529999
1271.825, 3.144562
1272.307, 2.689972
1272.789, 4.037231
1273.271, 3.729614
1273.754, 3.171783
1274.236, 2.894409
1274.718, 2.362915
1275.200, 0.7641300
1275.682, 0.4644470
1276.164, 7.0189998E-02
1276.646, 0.5514220
1277.128, 0.3124080
1277.611, 0.1931150
1278.093, 0.1753850
1278.575, 0.2285460
1279.057, 0.3164370
1279.539, 1.225189
1280.021, 0.6530760
1280.503, 3.017456
1280.985, 4.273285
1281.468, 4.729950
1281.950, 4.515350
1282.432, 4.545197
1282.914, 3.912750
1283.396, 1.962555
1283.878, 1.5260000E-03
1284.360, 1.417664
1284.842, 2.539124
1285.324, 0.0000000E+00
##END=



