##NAMES=Rongibbsite
##RRUFFID=R100031
##IDEAL CHEMISTRY=Pb_2_(AlSi_4_)O_11_(OH)
##LOCALITY=A prospect near Evening Star mine, Bighorn Mountains, Maricopa County, Arizona
##OWNER=RRUFF
##SOURCE=Ron Gibbs
##DESCRIPTION=Radiating, bladed to prismatic colorless crystals, type sample
##STATUS=The identification of this mineral is confirmed by single-crystal X-ray diffraction and chemical analysis.
##URL=rruff.info/R100031
##MEASURED CHEMISTRY=Pb_2.05_(Al_1.11_Si_3.89_)_Î£=5.00_O_11_(OH)
91.56970, 0.0000000E+00
92.05182, 2.739746
92.53394, 56.80591
93.01605, 145.8333
93.49817, 252.3568
93.98029, 372.9111
94.46240, 489.8737
94.94452, 613.3789
95.42664, 717.2014
95.90874, 792.3929
96.39086, 838.8599
96.87298, 856.6873
97.35509, 840.0452
97.83721, 776.6683
98.31933, 714.2367
98.80145, 646.5295
99.28356, 585.7000
99.76568, 539.3785
100.2478, 509.1702
100.7299, 491.6868
101.2120, 480.9961
101.6941, 482.7972
102.1763, 489.4358
102.6584, 505.0149
103.1405, 524.9443
103.6226, 542.6434
104.1047, 556.8853
104.5868, 571.2755
105.0690, 584.0159
105.5511, 594.8571
106.0332, 597.6771
106.5153, 585.0609
106.9974, 555.6833
107.4795, 517.4587
107.9617, 476.2352
108.4438, 433.8409
108.9259, 392.1431
109.4080, 351.4565
109.8901, 312.7510
110.3722, 275.4280
110.8544, 239.4913
111.3365, 206.9284
111.8186, 179.5593
112.3007, 156.1811
112.7828, 134.5060
113.2649, 113.3689
113.7471, 92.80029
114.2292, 74.37018
114.7113, 59.24072
115.1934, 45.29950
115.6755, 31.29303
116.1576, 17.45990
116.6397, 4.684326
117.1219, 5.913879
117.6040, 14.17365
118.0861, 19.98694
118.5682, 22.45081
119.0503, 23.84552
119.5324, 25.46295
120.0146, 27.42267
120.4967, 29.05762
120.9788, 29.19171
121.4609, 27.01453
121.9430, 24.13171
122.4251, 19.96771
122.9073, 15.40637
123.3894, 11.42346
123.8715, 8.345215
124.3536, 5.891174
124.8357, 3.585571
125.3178, 2.155396
125.8000, 4.188284
126.2821, 4.795227
126.7642, 11.06982
127.2463, 17.45752
127.7284, 23.26642
128.2105, 28.79791
128.6927, 34.67627
129.1748, 41.29865
129.6569, 47.91608
130.1390, 53.49603
130.6211, 57.82922
131.1032, 62.34985
131.5854, 68.63513
132.0675, 75.11603
132.5496, 80.34113
133.0317, 83.83728
133.5138, 85.65869
133.9959, 85.86835
134.4781, 83.74957
134.9602, 80.96326
135.4423, 78.22656
135.9244, 75.17450
136.4065, 71.17981
136.8886, 65.66699
137.3708, 58.80328
137.8529, 53.40717
138.3350, 50.71783
138.8171, 48.36011
139.2992, 45.58527
139.7813, 42.66809
140.2635, 40.41870
140.7456, 39.67139
141.2277, 40.71600
141.7098, 40.52148
142.1919, 38.81104
142.6740, 36.39844
143.1561, 33.52307
143.6383, 30.28400
144.1204, 26.83783
144.6025, 23.15045
145.0846, 19.11743
145.5667, 16.29980
146.0488, 15.82794
146.5310, 16.13324
147.0131, 15.54602
147.4952, 13.71423
147.9773, 11.31238
148.4594, 9.029724
148.9415, 6.840393
149.4237, 8.650513
149.9058, 9.987244
150.3879, 11.11877
150.8700, 12.36877
151.3521, 13.57797
151.8342, 15.12747
152.3164, 17.20172
152.7985, 19.77307
153.2806, 22.62622
153.7627, 25.71515
154.2448, 29.03705
154.7269, 32.26279
155.2091, 35.27988
155.6912, 38.24658
156.1733, 41.00262
156.6554, 43.61719
157.1375, 46.59555
157.6196, 50.61340
158.1018, 55.96802
158.5839, 61.59531
159.0660, 67.94876
159.5481, 74.16623
160.0302, 79.52518
160.5123, 83.91379
160.9945, 87.92651
161.4766, 92.60175
161.9587, 98.47406
162.4408, 104.2606
162.9229, 109.7246
163.4050, 115.1745
163.8871, 120.8813
164.3693, 126.9669
164.8514, 133.3403
165.3335, 139.7810
165.8156, 146.2743
166.2977, 152.8920
166.7798, 159.7076
167.2620, 166.6974
167.7441, 173.7640
168.2262, 180.8432
168.7083, 188.0093
169.1904, 195.3423
169.6725, 202.5263
170.1547, 210.3288
170.6368, 219.2640
171.1189, 229.1102
171.6010, 239.0315
172.0831, 248.6955
172.5652, 258.2649
173.0474, 268.1317
173.5295, 278.3556
174.0116, 288.4814
174.4937, 297.6689
174.9758, 305.7947
175.4579, 314.5658
175.9401, 325.5525
176.4222, 337.6659
176.9043, 349.4669
177.3864, 360.6292
177.8685, 371.6713
178.3506, 383.3336
178.8328, 395.7525
179.3149, 409.0277
179.7970, 423.2676
180.2791, 438.4397
180.7612, 454.1852
181.2433, 470.2800
181.7255, 487.3863
182.2076, 507.2395
182.6897, 530.9891
183.1718, 555.5299
183.6539, 579.5872
184.1360, 604.3557
184.6181, 630.9660
185.1003, 659.9982
185.5824, 690.8048
186.0645, 720.9109
186.5466, 748.9350
187.0287, 778.1474
187.5108, 808.8593
187.9930, 840.8005
188.4751, 873.5696
188.9572, 906.7736
189.4393, 941.4802
189.9214, 975.7078
190.4035, 1013.166
190.8857, 1050.599
191.3678, 1088.514
191.8499, 1125.863
192.3320, 1161.116
192.8141, 1193.327
193.2962, 1222.667
193.7784, 1250.680
194.2605, 1279.732
194.7426, 1305.456
195.2247, 1326.203
195.7068, 1342.420
196.1889, 1355.489
196.6711, 1365.979
197.1532, 1373.822
197.6353, 1379.902
198.1174, 1383.900
198.5995, 1386.709
199.0816, 1388.725
199.5638, 1389.947
200.0459, 1390.456
200.5280, 1390.479
201.0101, 1389.614
201.4922, 1387.377
201.9743, 1384.402
202.4565, 1379.388
202.9386, 1372.152
203.4207, 1362.788
203.9028, 1348.627
204.3849, 1329.233
204.8670, 1303.214
205.3492, 1268.432
205.8313, 1223.468
206.3134, 1170.865
206.7955, 1112.957
207.2776, 1049.049
207.7597, 983.0809
208.2419, 914.8250
208.7240, 846.0182
209.2061, 778.1267
209.6882, 710.7342
210.1703, 646.1448
210.6524, 588.5400
211.1346, 539.6071
211.6167, 494.6213
212.0988, 451.5507
212.5809, 411.5701
213.0630, 375.8464
213.5451, 345.1703
214.0273, 318.5825
214.5094, 294.2371
214.9915, 272.4877
215.4736, 252.6816
215.9557, 234.5582
216.4378, 217.9085
216.9200, 202.3921
217.4021, 187.9453
217.8842, 174.5869
218.3663, 162.6227
218.8484, 152.9423
219.3305, 143.5559
219.8127, 133.7981
220.2948, 124.3251
220.7769, 115.8510
221.2590, 108.7023
221.7411, 102.6099
222.2232, 96.79102
222.7054, 91.76868
223.1875, 86.39023
223.6696, 79.97415
224.1517, 73.37637
224.6338, 67.55173
225.1159, 62.91055
225.5980, 59.25668
226.0802, 56.04422
226.5623, 54.40753
227.0444, 51.86292
227.5265, 47.55685
228.0086, 42.43231
228.4907, 37.60678
228.9729, 33.52524
229.4550, 30.18488
229.9371, 27.74377
230.4192, 27.02631
230.9013, 25.86578
231.3834, 23.59171
231.8656, 20.75888
232.3477, 18.13385
232.8298, 15.99286
233.3119, 14.26508
233.7940, 12.88483
234.2761, 12.02524
234.7583, 11.01849
235.2404, 9.454468
235.7225, 7.672333
236.2046, 6.279694
236.6867, 5.510559
237.1688, 5.093140
237.6510, 4.597260
238.1331, 4.055756
238.6152, 3.369537
239.0973, 2.498138
239.5794, 1.454224
240.0615, 1.800702
240.5437, 1.290283
241.0258, 2.817749
241.5079, 4.133911
241.9900, 5.293427
242.4721, 5.904633
242.9542, 5.504028
243.4364, 4.420441
243.9185, 3.448883
244.4006, 2.669159
244.8827, 2.181549
245.3648, 2.093231
245.8469, 2.363861
246.3290, 2.830170
246.8112, 3.638550
247.2933, 4.591919
247.7754, 5.127747
248.2575, 5.106537
248.7396, 4.744476
249.2217, 4.189636
249.7039, 3.463135
250.1860, 2.606995
250.6681, 1.510132
251.1502, 0.3143620
251.6323, 0.4893190
252.1144, 0.8298030
252.5966, 0.8417050
253.0787, 0.2809750
253.5608, 0.5240480
254.0429, 0.7998050
254.5250, 0.2290950
255.0071, 2.161316
255.4893, 3.388641
255.9714, 3.509583
256.4535, 3.512878
256.9356, 3.684174
257.4177, 4.080505
257.8998, 4.805267
258.3820, 5.988708
258.8641, 7.454041
259.3462, 8.564178
259.8283, 9.253571
260.3104, 9.724518
260.7925, 10.03601
261.2747, 10.27719
261.7568, 10.45892
262.2389, 10.49820
262.7210, 10.58353
263.2031, 11.28406
263.6852, 12.78198
264.1674, 14.64124
264.6495, 17.01526
265.1316, 19.52686
265.6137, 21.78442
266.0958, 23.63541
266.5779, 25.16257
267.0601, 26.45261
267.5422, 26.96188
268.0243, 28.40771
268.5064, 31.37949
268.9885, 35.10571
269.4706, 38.90927
269.9528, 42.52460
270.4349, 46.06747
270.9170, 49.75958
271.3991, 53.65274
271.8812, 57.60007
272.3633, 61.41797
272.8455, 65.38354
273.3276, 69.46106
273.8097, 73.73700
274.2918, 78.63040
274.7739, 84.94821
275.2560, 93.80301
275.7382, 101.7857
276.2202, 108.5671
276.7024, 114.9651
277.1845, 121.2219
277.6666, 127.5437
278.1487, 134.3447
278.6308, 142.3493
279.1129, 152.4353
279.5951, 160.8472
280.0772, 166.7122
280.5593, 172.0014
281.0414, 178.0792
281.5235, 184.7314
282.0056, 190.6314
282.4878, 194.4501
282.9699, 195.9674
283.4520, 196.9935
283.9341, 198.1566
284.4162, 198.3411
284.8983, 196.8948
285.3805, 194.0493
285.8626, 190.5172
286.3447, 186.8785
286.8268, 183.1346
287.3089, 178.0538
287.7910, 170.5381
288.2732, 163.0071
288.7553, 156.1882
289.2374, 149.8781
289.7195, 143.7227
290.2016, 137.5316
290.6837, 131.2739
291.1659, 124.5601
291.6480, 116.5859
292.1301, 109.1412
292.6122, 102.7189
293.0943, 96.94571
293.5764, 91.33176
294.0586, 85.62872
294.5407, 79.90570
295.0228, 74.31757
295.5049, 68.58002
295.9870, 63.35098
296.4691, 59.07037
296.9513, 55.13120
297.4334, 50.67038
297.9155, 45.46436
298.3976, 40.27719
298.8797, 36.48419
299.3618, 35.41019
299.8440, 33.27429
300.3261, 28.92148
300.8082, 24.30981
301.2903, 21.06326
301.7724, 19.45737
302.2545, 18.56613
302.7367, 17.34122
303.2188, 15.70435
303.7009, 13.92743
304.1830, 11.72827
304.6651, 9.601868
305.1472, 7.933105
305.6294, 6.685669
306.1115, 5.470276
306.5936, 3.896759
307.0757, 1.917175
307.5578, 0.6532290
308.0399, 0.5276180
308.5221, 0.5608520
309.0042, 0.3706670
309.4863, 0.4611586
309.9684, 0.4244080
310.4505, 0.7171630
310.9326, 0.9362790
311.4148, 1.333954
311.8969, 2.058960
312.3790, 2.739441
312.8611, 3.305664
313.3432, 3.777649
313.8253, 4.253296
314.3075, 4.791473
314.7896, 5.225616
315.2717, 5.108673
315.7538, 4.016632
316.2359, 2.975708
316.7180, 1.801361
317.2001, 0.8290410
317.6823, 0.5453800
318.1644, 1.073486
318.6465, 1.950989
319.1286, 2.507263
319.6107, 2.635803
320.0928, 2.622620
320.5750, 2.405121
321.0571, 2.100372
321.5392, 1.731384
322.0213, 1.334778
322.5034, 1.068115
322.9855, 1.155548
323.4677, 1.722046
323.9498, 1.651703
324.4319, 1.551468
324.9140, 1.154388
325.3961, 1.227356
325.8782, 1.034697
326.3604, 0.5476990
326.8425, 0.7686460
327.3246, 0.3797610
327.8067, 4.5074001E-02
328.2888, 0.2993160
328.7709, 0.5350340
329.2531, 0.5701290
329.7352, 0.4909670
330.2173, 0.3861690
330.6994, 0.2871700
331.1815, 0.2825620
331.6636, 0.6143490
332.1458, 1.719421
332.6279, 2.637787
333.1100, 3.432922
333.5921, 3.982117
334.0742, 3.881195
334.5563, 3.101227
335.0385, 2.446411
335.5206, 3.189728
336.0027, 6.282623
336.4848, 8.328644
336.9669, 8.395264
337.4490, 8.277252
337.9312, 9.467133
338.4133, 11.81189
338.8954, 13.83633
339.3775, 14.12027
339.8596, 12.33173
340.3417, 11.43237
340.8239, 11.83246
341.3060, 12.60004
341.7881, 13.64145
342.2702, 14.78729
342.7523, 15.75571
343.2344, 16.30908
343.7166, 16.57098
344.1987, 17.17416
344.6808, 18.57022
345.1629, 19.81241
345.6450, 20.65649
346.1271, 21.36438
346.6093, 22.28027
347.0914, 23.51559
347.5735, 24.85428
348.0556, 25.89963
348.5377, 26.78482
349.0198, 27.07443
349.5020, 25.91965
349.9841, 24.88232
350.4662, 25.15155
350.9483, 26.76752
351.4304, 28.89404
351.9125, 30.66068
352.3947, 32.02087
352.8768, 33.31668
353.3589, 34.75534
353.8410, 35.92374
354.3231, 36.45239
354.8052, 36.59320
355.2874, 36.82004
355.7695, 37.41199
356.2516, 38.39127
356.7337, 39.95486
357.2158, 42.85406
357.6979, 45.31464
358.1800, 46.63452
358.6621, 47.54700
359.1443, 48.99146
359.6264, 51.33142
360.1085, 53.86887
360.5906, 55.14291
361.0727, 54.24576
361.5548, 54.49139
362.0370, 57.30731
362.5191, 60.44992
363.0012, 62.55652
363.4833, 63.53024
363.9654, 64.09399
364.4475, 64.84705
364.9297, 65.77356
365.4118, 67.07001
365.8939, 69.10355
366.3760, 71.18594
366.8581, 73.31857
367.3402, 75.25232
367.8224, 76.48410
368.3045, 76.50320
368.7866, 75.79907
369.2687, 75.89624
369.7508, 77.23688
370.2329, 78.35379
370.7151, 78.63074
371.1972, 78.52917
371.6793, 78.47281
372.1614, 78.57852
372.6435, 78.74194
373.1256, 79.03409
373.6078, 79.56317
374.0899, 79.49466
374.5720, 78.51886
375.0541, 76.94006
375.5362, 74.80319
376.0183, 72.13068
376.5005, 69.39612
376.9826, 66.93060
377.4647, 64.69370
377.9468, 62.45062
378.4289, 60.19684
378.9110, 57.95047
379.3932, 56.15622
379.8753, 54.35968
380.3574, 51.49707
380.8395, 46.38525
381.3216, 40.78122
381.8037, 37.02341
382.2859, 35.21243
382.7680, 33.82428
383.2501, 32.37280
383.7322, 30.71997
384.2143, 28.70901
384.6964, 26.30603
385.1786, 23.89368
385.6607, 21.68814
386.1428, 19.64438
386.6249, 17.59641
387.1070, 15.47720
387.5891, 13.41705
388.0713, 11.56931
388.5534, 9.916809
389.0355, 8.412140
389.5176, 7.167694
389.9997, 6.052216
390.4818, 4.739899
390.9640, 3.245575
391.4461, 2.189667
391.9282, 2.139435
392.4103, 2.831909
392.8924, 2.911072
393.3745, 1.450043
393.8567, 0.6009830
394.3388, 2.043030
394.8209, 4.487396
395.3030, 5.188904
395.7851, 2.987762
396.2672, 0.4528500
396.7494, 2.221130
397.2315, 1.613342
397.7136, 0.9146730
398.1957, 0.1900020
398.6778, 1.083069
399.1599, 0.9549870
399.6420, 9.6557997E-02
400.1241, 1.012604
400.6063, 0.8092350
401.0884, 0.5554200
401.5705, 1.671448
402.0526, 2.565796
402.5347, 3.231628
403.0168, 3.419434
403.4990, 3.430847
403.9811, 3.757446
404.4632, 4.637970
404.9453, 5.873566
405.4274, 6.951691
405.9095, 7.463501
406.3917, 8.540253
406.8738, 10.64218
407.3559, 12.94373
407.8380, 14.83459
408.3201, 16.26733
408.8022, 17.61917
409.2844, 19.26202
409.7665, 21.19614
410.2486, 23.31900
410.7307, 26.06296
411.2128, 28.50278
411.6949, 30.30103
412.1771, 31.62640
412.6592, 32.65610
413.1413, 33.38025
413.6234, 34.18399
414.1055, 35.91043
414.5876, 38.71313
415.0698, 42.01352
415.5519, 46.52667
416.0340, 50.91071
416.5161, 54.17590
416.9982, 56.24347
417.4803, 57.75879
417.9625, 59.05093
418.4446, 60.18735
418.9267, 61.75833
419.4088, 64.13504
419.8909, 66.32886
420.3730, 67.77664
420.8552, 68.59195
421.3373, 68.87070
421.8194, 68.24509
422.3015, 67.51105
422.7836, 67.68875
423.2657, 68.76862
423.7479, 70.04266
424.2300, 71.49329
424.7121, 72.73911
425.1942, 73.12796
425.6763, 72.46707
426.1584, 71.97308
426.6406, 72.58325
427.1227, 73.58255
427.6048, 73.55951
428.0869, 72.21033
428.5690, 70.80640
429.0511, 70.67346
429.5333, 71.79550
430.0154, 72.03317
430.4975, 70.71585
430.9796, 69.13593
431.4617, 67.81525
431.9438, 66.80585
432.4260, 66.24078
432.9081, 66.24063
433.3902, 66.51004
433.8723, 66.36691
434.3544, 65.87125
434.8365, 64.79916
435.3187, 62.43332
435.8008, 59.95456
436.2829, 58.47488
436.7650, 58.02267
437.2471, 57.78088
437.7292, 56.99136
438.2114, 55.63528
438.6935, 54.33929
439.1756, 52.83011
439.6577, 51.69293
440.1398, 51.51138
440.6219, 51.64496
441.1040, 51.21268
441.5862, 49.84943
442.0683, 47.96237
442.5504, 46.11102
443.0325, 43.91315
443.5146, 42.93365
443.9967, 44.63882
444.4789, 46.48718
444.9610, 46.93155
445.4431, 46.23627
445.9252, 45.78955
446.4073, 46.66626
446.8894, 48.56580
447.3716, 50.29654
447.8537, 51.67767
448.3358, 53.33636
448.8179, 55.89511
449.3000, 58.73224
449.7821, 60.97601
450.2643, 62.21973
450.7464, 63.95474
451.2285, 67.78561
451.7106, 73.33817
452.1927, 78.62869
452.6748, 83.15839
453.1570, 87.56226
453.6391, 92.32590
454.1212, 97.39197
454.6033, 102.8044
455.0854, 108.8425
455.5675, 115.2705
456.0497, 121.9498
456.5318, 128.7746
457.0139, 135.6539
457.4960, 142.6516
457.9781, 149.6219
458.4602, 156.2166
458.9424, 162.5957
459.4245, 168.2696
459.9066, 173.3689
460.3887, 177.5570
460.8708, 180.4510
461.3529, 182.0770
461.8351, 182.8420
462.3172, 183.1362
462.7993, 182.9547
463.2814, 181.3176
463.7635, 178.0886
464.2456, 173.7659
464.7278, 168.0239
465.2099, 161.3736
465.6920, 154.2592
466.1741, 146.7938
466.6562, 139.3221
467.1383, 132.5869
467.6205, 126.9207
468.1026, 120.9581
468.5847, 113.5423
469.0668, 106.6965
469.5489, 101.6824
470.0310, 98.11075
470.5132, 94.78970
470.9953, 90.94955
471.4774, 86.84811
471.9595, 83.07068
472.4416, 79.47726
472.9237, 76.84741
473.4059, 76.87204
473.8880, 77.14331
474.3701, 75.01898
474.8522, 70.13089
475.3343, 65.59747
475.8164, 63.46024
476.2986, 63.19131
476.7807, 63.69971
477.2628, 65.01483
477.7449, 66.29138
478.2270, 66.76984
478.7091, 66.66431
479.1913, 66.90594
479.6734, 67.19461
480.1555, 68.21994
480.6376, 70.39227
481.1197, 73.55566
481.6018, 77.55783
482.0839, 82.39157
482.5660, 87.55084
483.0482, 92.44995
483.5303, 97.19601
484.0124, 101.0398
484.4945, 103.1629
484.9766, 105.2018
485.4587, 108.1375
485.9409, 111.7202
486.4230, 115.3575
486.9051, 118.7900
487.3872, 121.6958
487.8693, 123.0599
488.3514, 122.1803
488.8336, 121.0159
489.3157, 120.5477
489.7978, 119.2520
490.2799, 115.6886
490.7620, 110.1393
491.2441, 104.2791
491.7263, 99.44070
492.2084, 95.42136
492.6905, 91.28790
493.1726, 87.13004
493.6547, 82.66977
494.1368, 77.56442
494.6190, 72.24649
495.1011, 67.05756
495.5832, 62.03183
496.0653, 57.38580
496.5474, 53.64407
497.0295, 50.45779
497.5117, 46.66324
497.9938, 41.92096
498.4759, 37.24597
498.9580, 33.35370
499.4401, 30.21429
499.9222, 27.52966
500.4044, 25.67969
500.8865, 23.86136
501.3686, 21.46036
501.8507, 18.80371
502.3328, 16.57596
502.8149, 15.02737
503.2971, 13.77829
503.7792, 12.27466
504.2613, 10.32416
504.7434, 8.800873
505.2255, 7.911652
505.7076, 7.196564
506.1898, 6.534912
506.6719, 5.867218
507.1540, 5.112885
507.6361, 4.222809
508.1182, 3.281128
508.6003, 2.508606
509.0825, 1.994843
509.5646, 1.404083
510.0467, 1.085103
510.5288, 0.7759710
511.0109, 0.6663510
511.4930, 0.5578610
511.9752, 0.4757390
512.4573, 0.7599180
512.9394, 1.229034
513.4215, 1.386597
513.9036, 1.144714
514.3857, 1.123901
514.8679, 1.810822
515.3500, 2.664581
515.8321, 2.983612
516.3142, 2.713013
516.7963, 2.261932
517.2784, 1.500854
517.7606, 0.8078310
518.2427, 0.8598630
518.7248, 1.662170
519.2069, 2.372742
519.6890, 2.378021
520.1711, 1.860382
520.6533, 1.728821
521.1354, 2.204926
521.6175, 2.704742
522.0996, 3.599518
522.5817, 4.207855
523.0638, 3.444275
523.5460, 1.376221
524.0281, 0.5735170
524.5102, 0.9416200
524.9923, 0.2121890
525.4744, 0.7658390
525.9565, 8.5845999E-02
526.4387, 0.3903810
526.9208, 0.1478880
527.4029, 0.3138430
527.8850, 0.5417480
528.3671, 0.4048460
528.8492, 0.1072690
529.3314, 1.247070
529.8135, 2.908630
530.2956, 3.972717
530.7777, 4.090820
531.2598, 4.202728
531.7419, 5.019989
532.2241, 6.190643
532.7062, 7.149780
533.1883, 7.682709
533.6704, 8.217133
534.1525, 9.074768
534.6346, 10.14984
535.1168, 11.23065
535.5989, 12.27655
536.0810, 13.22897
536.5631, 13.96964
537.0452, 14.48676
537.5273, 15.29459
538.0095, 16.83783
538.4916, 18.15057
538.9737, 18.66187
539.4558, 18.79367
539.9379, 19.27164
540.4200, 20.30353
540.9022, 21.38577
541.3843, 21.82440
541.8664, 21.55988
542.3485, 20.99173
542.8306, 19.92963
543.3127, 18.75827
543.7948, 17.55289
544.2769, 16.33215
544.7590, 15.11414
545.2411, 13.90070
545.7233, 12.70407
546.2054, 11.45712
546.6875, 10.18210
547.1696, 9.358643
547.6517, 9.248566
548.1339, 9.239105
548.6160, 8.801178
549.0981, 8.051788
549.5802, 7.271667
550.0623, 6.121887
550.5444, 5.372955
551.0266, 5.734253
551.5087, 6.851501
551.9908, 8.062805
552.4729, 9.191559
552.9550, 9.900208
553.4371, 9.663452
553.9193, 8.227783
554.4014, 7.388824
554.8835, 7.820770
555.3656, 8.018158
555.8477, 7.179871
556.3298, 5.842896
556.8120, 4.815338
557.2941, 4.390106
557.7762, 4.328247
558.2583, 4.367432
558.7404, 4.545715
559.2225, 4.491608
559.7047, 3.968262
560.1868, 3.508942
560.6689, 3.504028
561.1510, 3.687073
561.6331, 3.537567
562.1152, 2.750824
562.5974, 2.019012
563.0795, 2.119934
563.5616, 2.827698
564.0437, 3.348633
564.5258, 3.536133
565.0079, 3.469208
565.4901, 3.153870
565.9722, 2.602539
566.4543, 2.151855
566.9364, 1.975616
567.4185, 1.703125
567.9006, 0.9889530
568.3828, 0.1405940
568.8649, 0.3887020
569.3470, 0.4530640
569.8291, 0.1674800
570.3112, 0.3966670
570.7933, 1.270691
571.2755, 1.672058
571.7576, 1.092041
572.2397, 0.7147220
572.7218, 1.093719
573.2039, 1.607269
573.6860, 1.454559
574.1682, 0.4865110
574.6503, 0.4062810
575.1324, 0.2985840
575.6145, 0.6185000
576.0966, 1.451660
576.5787, 2.046112
577.0609, 2.763702
577.5430, 4.244690
578.0251, 5.931946
578.5072, 6.303070
578.9893, 4.413818
579.4714, 3.148926
579.9536, 4.190186
580.4357, 6.134979
580.9178, 7.297577
581.3999, 7.595764
581.8820, 7.886902
582.3641, 8.712128
582.8463, 9.969513
583.3284, 11.37204
583.8105, 13.51581
584.2926, 15.09732
584.7747, 15.36938
585.2568, 15.49594
585.7390, 16.32336
586.2211, 17.93762
586.7032, 20.00998
587.1853, 22.23355
587.6674, 24.75476
588.1495, 28.20816
588.6317, 32.83640
589.1138, 36.90469
589.5959, 39.67017
590.0780, 41.81052
590.5601, 43.83545
591.0422, 45.75180
591.5244, 48.53140
592.0065, 53.29114
592.4886, 58.38803
592.9707, 62.01459
593.4528, 64.58426
593.9349, 67.76230
594.4171, 72.29684
594.8992, 77.57394
595.3813, 82.63272
595.8634, 87.73923
596.3455, 91.79044
596.8276, 93.96017
597.3098, 96.09302
597.7919, 99.24097
598.2740, 102.8202
598.7561, 105.7609
599.2382, 107.6198
599.7203, 108.9407
600.2025, 110.6259
600.6846, 112.6482
601.1667, 113.6378
601.6488, 113.0707
602.1309, 112.2410
602.6130, 112.1877
603.0952, 112.4829
603.5773, 112.2336
604.0594, 111.1290
604.5415, 109.8459
605.0236, 108.8490
605.5057, 107.8428
605.9879, 106.2100
606.4700, 103.9253
606.9521, 101.7492
607.4342, 100.3618
607.9163, 99.63434
608.3984, 98.56989
608.8806, 96.93372
609.3627, 95.26184
609.8448, 93.89893
610.3269, 92.29263
610.8090, 89.87973
611.2911, 86.74814
611.7733, 83.49631
612.2554, 80.49277
612.7375, 77.69077
613.2196, 74.90790
613.7017, 72.10202
614.1838, 69.64447
614.6660, 67.81461
615.1481, 66.16461
615.6302, 64.10297
616.1123, 61.66232
616.5944, 59.37411
617.0765, 57.28418
617.5587, 55.44632
618.0408, 53.97403
618.5229, 52.77347
619.0050, 51.58139
619.4871, 50.31519
619.9692, 49.23361
620.4514, 48.71771
620.9335, 48.83594
621.4156, 48.99725
621.8977, 49.24860
622.3798, 49.47562
622.8619, 49.55988
623.3441, 49.65283
623.8262, 50.01251
624.3083, 50.68637
624.7904, 51.24551
625.2725, 51.12454
625.7546, 50.62024
626.2367, 50.55026
626.7188, 50.95471
627.2009, 51.75629
627.6830, 53.14160
628.1652, 54.73370
628.6473, 55.59634
629.1294, 55.46729
629.6115, 55.56204
630.0936, 56.13919
630.5757, 56.98447
631.0579, 58.19965
631.5400, 59.49567
632.0221, 60.31793
632.5042, 60.36639
632.9863, 60.00409
633.4684, 60.04401
633.9506, 60.63400
634.4327, 60.90054
634.9148, 60.58542
635.3969, 60.21628
635.8790, 60.30115
636.3611, 60.50540
636.8433, 60.08887
637.3254, 58.61505
637.8075, 56.96487
638.2896, 56.01508
638.7717, 55.41196
639.2538, 54.34189
639.7360, 52.71280
640.2181, 51.14706
640.7002, 50.15646
641.1823, 49.48605
641.6644, 48.13223
642.1465, 45.17172
642.6287, 42.82440
643.1108, 41.50339
643.5929, 40.49054
644.0750, 39.59561
644.5571, 38.55255
645.0392, 36.73010
645.5214, 33.58203
646.0035, 30.23380
646.4856, 28.95535
646.9677, 29.80042
647.4498, 29.85370
647.9319, 28.23367
648.4141, 26.08240
648.8962, 24.23813
649.3783, 22.74387
649.8604, 21.84930
650.3425, 22.36328
650.8246, 22.39407
651.3068, 20.62073
651.7889, 18.25571
652.2710, 16.84497
652.7531, 16.53751
653.2352, 16.55634
653.7173, 16.35086
654.1995, 15.87714
654.6816, 14.87637
655.1637, 13.01578
655.6458, 11.43350
656.1279, 10.13895
656.6100, 9.337463
657.0922, 9.424408
657.5743, 10.15814
658.0564, 10.76794
658.5385, 11.10706
659.0206, 11.00064
659.5027, 9.836029
659.9849, 8.097900
660.4670, 7.386688
660.9491, 8.109680
661.4312, 8.780243
661.9133, 7.922882
662.3954, 5.688599
662.8776, 4.281769
663.3597, 4.459015
663.8418, 4.492554
664.3239, 4.007019
664.8060, 3.475861
665.2881, 3.324341
665.7703, 3.520477
666.2524, 3.720642
666.7345, 3.660583
667.2166, 3.557770
667.6987, 3.945953
668.1808, 4.797272
668.6630, 5.189972
669.1451, 4.824432
669.6272, 4.144379
670.1093, 3.503204
670.5914, 2.905823
671.0735, 2.406097
671.5557, 1.864349
672.0378, 1.586639
672.5199, 1.992554
673.0020, 2.527771
673.4841, 2.497375
673.9662, 1.888702
674.4484, 1.236969
674.9305, 0.9294430
675.4126, 0.9332280
675.8947, 1.238403
676.3768, 2.003876
676.8589, 2.337463
677.3411, 1.789307
677.8232, 1.062286
678.3053, 0.6062010
678.7874, 0.4411320
679.2695, 0.6152950
679.7516, 1.528687
680.2338, 2.294342
680.7159, 2.268646
681.1980, 1.804779
681.6801, 1.338593
682.1622, 1.000519
682.6443, 1.008179
683.1265, 1.638641
683.6086, 2.637665
684.0907, 2.688965
684.5728, 1.127228
685.0549, 8.7981999E-02
685.5370, 0.2238460
686.0192, 0.6423030
686.5013, 1.142639
686.9834, 1.502106
687.4655, 1.129578
687.9476, 0.6457820
688.4297, 2.404388
688.9119, 2.872223
689.3940, 2.366608
689.8761, 1.394470
690.3582, 1.636454
690.8403, 0.9735410
691.3224, 1.218597
691.8046, 0.8033750
692.2867, 0.3656010
692.7688, 6.8847999E-02
693.2509, 0.5651250
693.7330, 1.573914
694.2151, 2.223907
694.6973, 1.628357
695.1794, 0.2771300
695.6615, 0.5907290
696.1436, 0.3758850
696.6257, 0.2572020
697.1078, 0.7098080
697.5900, 0.9799800
698.0721, 1.021698
698.5542, 0.8155210
699.0363, 0.5686950
699.5184, 0.4075320
700.0005, 0.3235780
700.4827, 0.2907100
700.9648, 0.4302060
701.4469, 0.4216610
701.9290, 0.1444400
702.4111, 0.1706850
702.8932, 0.5857850
703.3754, 0.8941960
703.8575, 0.5319820
704.3396, 0.7944030
704.8217, 1.970978
705.3038, 1.250214
705.7859, 0.8840330
706.2681, 1.992920
706.7502, 1.754150
707.2323, 1.383942
707.7144, 1.505432
708.1965, 1.969727
708.6786, 2.517090
709.1607, 3.401459
709.6428, 3.628632
710.1249, 2.411682
710.6071, 1.239746
711.0892, 0.9708560
711.5713, 1.331879
712.0534, 1.784546
712.5355, 2.146973
713.0176, 2.590027
713.4998, 3.548706
713.9819, 4.816711
714.4640, 5.093811
714.9461, 4.170868
715.4282, 3.565887
715.9103, 4.151398
716.3925, 5.128571
716.8746, 5.211639
717.3567, 4.308655
717.8388, 3.479889
718.3209, 2.569672
718.8030, 2.018158
719.2852, 2.261536
719.7673, 2.884735
720.2494, 3.345673
720.7315, 3.512024
721.2136, 3.563507
721.6957, 3.626007
722.1779, 3.721405
722.6600, 4.067902
723.1421, 4.759857
723.6242, 4.796753
724.1063, 3.524628
724.5884, 2.080780
725.0706, 1.785156
725.5527, 2.543030
726.0348, 3.075012
726.5169, 3.325531
726.9990, 3.330566
727.4811, 2.939209
727.9633, 2.413177
728.4454, 2.008575
728.9275, 1.760010
729.4096, 1.566650
729.8917, 1.327637
730.3738, 1.185730
730.8560, 1.618988
731.3381, 2.657806
731.8202, 3.064270
732.3023, 2.376007
732.7844, 1.669373
733.2665, 1.827576
733.7487, 2.603058
734.2308, 3.038116
734.7129, 3.168457
735.1950, 2.888550
735.6771, 1.492126
736.1592, 0.2491460
736.6414, 0.3700260
737.1235, 1.471130
737.6056, 2.460358
738.0877, 2.850189
738.5698, 2.885651
739.0519, 2.862518
739.5341, 2.781647
740.0162, 2.532562
740.4983, 1.964417
740.9804, 2.030151
741.4625, 3.732910
741.9446, 5.871857
742.4268, 5.928467
742.9089, 3.334961
743.3910, 1.806091
743.8731, 2.225037
744.3552, 3.140106
744.8373, 4.298187
745.3195, 5.313568
745.8016, 5.580566
746.2837, 4.969849
746.7658, 4.153961
747.2479, 3.620270
747.7300, 3.414001
748.2122, 3.754791
748.6943, 4.586304
749.1764, 5.076477
749.6585, 4.937805
750.1406, 4.515533
750.6227, 4.032440
751.1049, 3.489594
751.5870, 3.345367
752.0691, 4.158051
752.5512, 4.707672
753.0333, 4.597992
753.5154, 4.295746
753.9976, 4.183411
754.4797, 4.227936
754.9618, 4.188354
755.4439, 3.901825
755.9260, 3.695007
756.4081, 4.265778
756.8903, 5.317627
757.3724, 5.461304
757.8545, 4.475922
758.3366, 3.437958
758.8187, 2.946655
759.3008, 2.924622
759.7830, 3.224396
760.2651, 4.268951
760.7472, 4.614227
761.2293, 3.567444
761.7114, 2.631958
762.1935, 2.428741
762.6757, 2.599213
763.1578, 2.751495
763.6399, 2.821869
764.1220, 2.966583
764.6041, 3.610748
765.0862, 4.285645
765.5684, 4.079742
766.0505, 3.193298
766.5326, 2.711365
767.0147, 2.999298
767.4968, 3.417145
767.9789, 3.219910
768.4611, 2.442139
768.9432, 2.017090
769.4253, 2.171570
769.9074, 2.294617
770.3895, 2.215912
770.8716, 2.141571
771.3538, 2.235687
771.8359, 2.452118
772.3180, 2.667694
772.8001, 2.947723
773.2822, 3.004608
773.7643, 2.259216
774.2465, 1.335815
774.7286, 1.408569
775.2107, 2.355133
775.6928, 2.885468
776.1749, 2.231964
776.6570, 1.218933
777.1392, 1.662292
777.6213, 3.907257
778.1034, 5.090179
778.5855, 4.738281
779.0676, 4.217712
779.5497, 4.024475
780.0319, 4.043274
780.5140, 4.197266
780.9961, 4.504517
781.4782, 4.605560
781.9603, 4.339142
782.4424, 3.915009
782.9246, 3.128113
783.4067, 2.439728
783.8888, 2.705750
784.3709, 3.870239
784.8530, 4.821442
785.3351, 4.564972
785.8173, 3.611176
786.2994, 3.228699
786.7815, 3.420319
787.2636, 3.596466
787.7457, 3.614685
788.2278, 3.726593
788.7100, 4.118561
789.1921, 4.763031
789.6742, 5.569000
790.1563, 7.150024
790.6384, 7.758881
791.1205, 6.298035
791.6026, 4.877472
792.0847, 4.905121
792.5668, 5.689056
793.0490, 5.807007
793.5311, 4.861694
794.0132, 4.165649
794.4953, 5.462372
794.9774, 7.447662
795.4595, 7.628693
795.9417, 6.209961
796.4238, 4.529022
796.9059, 2.967865
797.3880, 2.035065
797.8701, 2.440460
798.3522, 4.056763
798.8344, 4.719696
799.3165, 3.683746
799.7986, 3.134186
800.2807, 4.159302
800.7628, 5.091156
801.2449, 4.750336
801.7271, 3.537842
802.2092, 2.536926
802.6913, 1.987183
803.1734, 1.710938
803.6555, 1.747498
804.1376, 1.929596
804.6198, 2.139465
805.1019, 2.334015
805.5840, 2.404144
806.0661, 2.306030
806.5482, 2.224274
807.0303, 2.539246
807.5125, 3.160187
807.9946, 3.012146
808.4767, 1.872833
808.9588, 1.289215
809.4409, 2.071045
809.9230, 3.132263
810.4052, 3.182770
810.8873, 2.216766
811.3694, 1.580505
811.8515, 1.637451
812.3336, 1.529449
812.8157, 0.7710880
813.2979, 4.9835000E-02
813.7800, 1.7029000E-02
814.2621, 0.4987790
814.7442, 0.8987430
815.2263, 0.9550780
815.7084, 0.9239200
816.1906, 0.9185790
816.6727, 1.050293
817.1548, 1.760468
817.6369, 2.945801
818.1190, 3.735901
818.6011, 3.743500
819.0833, 3.163666
819.5654, 2.097504
820.0475, 0.4789430
820.5296, 0.1277470
821.0117, 1.883484
821.4938, 3.186951
821.9760, 3.128540
822.4581, 2.576172
822.9402, 2.113068
823.4223, 1.764862
823.9044, 1.596466
824.3865, 1.760162
824.8687, 1.858856
825.3508, 1.647186
825.8329, 1.390411
826.3150, 1.344971
826.7971, 1.486908
827.2792, 1.764404
827.7614, 1.699683
828.2435, 1.845142
828.7256, 1.648834
829.2077, 1.759044
829.6898, 1.539073
830.1719, 1.086548
830.6541, 1.110138
831.1362, 0.5902710
831.6183, 7.6263003E-02
832.1004, 0.6469730
832.5825, 1.116150
833.0646, 1.221191
833.5468, 0.7002560
834.0289, 0.2302550
834.5110, 0.3072510
834.9931, 0.5968320
835.4752, 0.3023680
835.9573, 0.3895570
836.4395, 1.033173
836.9216, 1.572510
837.4037, 1.906952
837.8858, 1.761566
838.3679, 1.501221
838.8500, 1.747101
839.3322, 1.311754
839.8143, 1.997742
840.2964, 0.8643800
840.7785, 0.2821040
841.2606, 0.3984990
841.7427, 0.2748410
842.2249, 0.8780520
842.7070, 1.419006
843.1891, 1.824432
843.6712, 2.049072
844.1533, 2.091827
844.6354, 1.881989
845.1176, 1.553284
845.5997, 1.624237
846.0818, 2.346313
846.5639, 2.974121
847.0460, 4.040741
847.5281, 4.522125
848.0103, 3.284149
848.4924, 1.395752
848.9745, 0.3804630
849.4566, 0.5376590
849.9387, 1.180511
850.4208, 2.606140
850.9030, 3.771301
851.3851, 3.385193
851.8672, 2.151245
852.3493, 1.448059
852.8314, 1.511200
853.3135, 1.654358
853.7957, 1.320679
854.2778, 1.700653
854.7599, 1.183075
855.2420, 2.260895
855.7241, 3.074005
856.2062, 3.479553
856.6884, 3.838196
857.1705, 4.506531
857.6526, 5.009216
858.1347, 4.293060
858.6168, 1.830200
859.0989, 0.5490110
859.5811, 1.208130
860.0632, 2.028534
860.5453, 3.066223
861.0274, 3.749939
861.5095, 3.315552
861.9916, 2.007507
862.4738, 1.006561
862.9559, 0.7504270
863.4380, 0.8311770
863.9201, 1.130829
864.4022, 1.527954
864.8843, 1.756866
865.3665, 1.943512
865.8486, 2.670349
866.3307, 4.155090
866.8128, 5.509613
867.2949, 5.588776
867.7770, 4.606812
868.2592, 3.253632
868.7413, 1.518250
869.2234, 0.5423580
869.7055, 0.7504880
870.1876, 1.334076
870.6697, 1.555756
871.1519, 1.496368
871.6340, 1.648865
872.1161, 2.292816
872.5981, 2.612213
873.0803, 2.326324
873.5624, 1.963013
874.0445, 1.721649
874.5266, 1.541260
875.0087, 1.314301
875.4908, 1.023438
875.9730, 0.7738950
876.4551, 0.4851990
876.9372, 0.3751220
877.4193, 0.6116330
877.9014, 1.090454
878.3835, 1.911499
878.8657, 2.883575
879.3478, 3.287506
879.8299, 2.613953
880.3120, 1.518127
880.7941, 0.7510380
881.2762, 0.3214420
881.7584, 0.3839720
882.2405, 0.9027400
882.7226, 1.292419
883.2047, 1.271515
883.6868, 1.200775
884.1689, 1.635223
884.6511, 2.545105
885.1332, 2.903351
885.6153, 2.575226
886.0974, 2.044189
886.5795, 1.265808
887.0616, 0.4767150
887.5438, 0.4772030
888.0259, 1.317627
888.5080, 0.9967350
888.9901, 1.475067
889.4722, 1.226732
889.9543, 1.919769
890.4365, 0.6939090
890.9186, 0.1710820
891.4007, 0.1629330
891.8828, 0.3866270
892.3649, 0.7554930
892.8470, 1.231720
893.3292, 2.246674
893.8113, 2.873810
894.2934, 1.686279
894.7755, 0.2869570
895.2576, 1.272156
895.7397, 1.142578
896.2219, 0.5466920
896.7040, 0.1889040
897.1861, 0.8941040
897.6682, 1.375732
898.1503, 1.613525
898.6324, 1.359924
899.1146, 0.5952760
899.5967, 0.1132510
900.0788, 0.6664120
900.5609, 0.9962770
901.0430, 0.9880070
901.5251, 0.7102360
902.0073, 0.6104130
902.4894, 0.9361880
902.9715, 0.9273070
903.4536, 0.1470340
903.9357, 0.5079960
904.4178, 0.2874760
904.9000, 0.1181340
905.3821, 0.4982910
905.8642, 2.311432
906.3463, 3.278442
906.8284, 2.131500
907.3105, 0.9667660
907.7927, 0.6648560
908.2748, 0.8829960
908.7569, 1.453918
909.2390, 2.174225
909.7211, 2.677917
910.2032, 2.815613
910.6854, 2.593750
911.1675, 1.695984
911.6496, 0.6174010
912.1317, 0.2077940
912.6138, 0.3672180
913.0959, 0.6643980
913.5781, 0.9461980
914.0602, 1.144989
914.5423, 1.144592
915.0244, 1.104767
915.5065, 1.604187
915.9886, 2.650635
916.4708, 3.450592
916.9529, 3.872681
917.4350, 4.260681
917.9171, 4.859283
918.3992, 5.409821
918.8813, 5.405884
919.3635, 4.731354
919.8456, 4.431030
920.3277, 4.906769
920.8098, 5.093170
921.2919, 4.499268
921.7740, 3.788269
922.2562, 3.373993
922.7383, 3.216187
923.2204, 3.106689
923.7025, 2.728363
924.1846, 3.154846
924.6667, 5.853302
925.1489, 8.157104
925.6310, 7.984253
926.1131, 6.660431
926.5952, 6.009338
927.0773, 6.297821
927.5594, 6.771057
928.0416, 7.042816
928.5237, 7.270294
929.0058, 7.607574
929.4879, 7.992676
929.9700, 8.334686
930.4521, 8.628906
930.9343, 8.957123
931.4164, 9.344635
931.8985, 9.527191
932.3806, 9.036285
932.8627, 8.156189
933.3448, 7.846344
933.8270, 8.064484
934.3091, 8.331421
934.7912, 8.547699
935.2733, 8.906677
935.7554, 9.649902
936.2375, 10.33624
936.7197, 9.618835
937.2018, 6.937561
937.6839, 6.228577
938.1660, 8.312592
938.6481, 10.28461
939.1302, 11.10181
939.6124, 11.57156
940.0945, 12.69083
940.5766, 14.29855
941.0587, 14.95685
941.5408, 13.50055
942.0229, 12.91080
942.5051, 13.99606
942.9872, 15.23102
943.4693, 15.63437
943.9514, 15.86047
944.4335, 17.05511
944.9156, 19.28955
945.3978, 20.92215
945.8799, 20.67636
946.3620, 20.67004
946.8441, 22.53229
947.3262, 24.72403
947.8083, 25.45264
948.2905, 25.21542
948.7726, 25.73654
949.2547, 27.67477
949.7368, 29.90509
950.2189, 31.72672
950.7010, 33.11749
951.1832, 33.82852
951.6653, 34.14774
952.1474, 34.63770
952.6295, 35.43015
953.1116, 36.81082
953.5938, 39.15457
954.0759, 41.58551
954.5580, 42.30762
955.0400, 41.69577
955.5222, 41.91354
956.0043, 43.03107
956.4864, 44.56940
956.9685, 46.44528
957.4506, 47.95895
957.9327, 48.30301
958.4149, 47.90427
958.8970, 48.73459
959.3791, 51.30728
959.8612, 52.47299
960.3433, 51.37531
960.8254, 50.55734
961.3076, 51.58276
961.7897, 53.10077
962.2718, 53.21774
962.7539, 51.90427
963.2360, 50.66348
963.7181, 49.04843
964.2003, 48.15732
964.6824, 48.56268
965.1645, 49.20428
965.6466, 49.67615
966.1287, 49.94165
966.6108, 50.08789
967.0930, 50.22794
967.5751, 49.47382
968.0572, 46.82877
968.5393, 44.27206
969.0214, 42.55212
969.5035, 41.29764
969.9857, 40.31793
970.4678, 39.55222
970.9499, 38.89926
971.4320, 38.33926
971.9141, 37.57031
972.3962, 36.32663
972.8784, 34.88602
973.3605, 33.43576
973.8426, 32.01410
974.3247, 30.24011
974.8068, 28.39832
975.2889, 27.88916
975.7711, 29.76617
976.2532, 31.65735
976.7353, 30.54590
977.2174, 27.80600
977.6995, 25.44504
978.1816, 23.77408
978.6638, 23.63599
979.1459, 25.10150
979.6280, 26.70895
980.1101, 27.33725
980.5922, 27.20517
981.0743, 26.67279
981.5565, 25.76376
982.0386, 24.29071
982.5207, 22.29425
983.0028, 21.45923
983.4849, 22.51855
983.9670, 24.23480
984.4492, 25.33740
984.9313, 25.85956
985.4134, 25.82269
985.8955, 25.09140
986.3776, 24.87912
986.8597, 25.45801
987.3419, 25.94513
987.8240, 25.81531
988.3061, 25.55621
988.7882, 25.88351
989.2703, 26.79352
989.7524, 27.68854
990.2346, 29.00595
990.7167, 29.26886
991.1988, 27.32913
991.6809, 25.67831
992.1630, 25.93396
992.6451, 27.25775
993.1273, 28.31631
993.6094, 29.16830
994.0915, 29.33502
994.5736, 28.33136
995.0557, 27.31390
995.5378, 26.47159
996.0200, 25.71252
996.5021, 25.19568
996.9842, 24.64737
997.4663, 23.36661
997.9484, 21.08130
998.4305, 19.45401
998.9127, 19.37341
999.3948, 19.44342
999.8769, 19.20538
1000.359, 18.74316
1000.841, 18.14059
1001.323, 17.40277
1001.805, 16.48654
1002.287, 15.36005
1002.770, 14.22177
1003.252, 13.24246
1003.734, 12.21921
1004.216, 10.67255
1004.698, 9.185425
1005.180, 8.663422
1005.662, 8.958466
1006.144, 9.262238
1006.627, 9.281097
1007.109, 8.822235
1007.591, 7.346008
1008.073, 5.622742
1008.555, 4.485291
1009.037, 3.826965
1009.519, 3.393341
1010.001, 3.129700
1010.483, 3.112488
1010.966, 3.417847
1011.448, 3.761688
1011.930, 3.787140
1012.412, 3.623505
1012.894, 3.415131
1013.376, 3.253265
1013.858, 3.542419
1014.340, 4.283020
1014.823, 4.757019
1015.305, 4.453705
1015.787, 3.666077
1016.269, 2.741608
1016.751, 1.751434
1017.233, 1.008057
1017.715, 0.4961240
1018.197, 0.1189880
1018.679, 0.1259401
1019.162, 1.267181
1019.644, 0.5585330
1020.126, 0.6219790
1020.608, 0.8980410
1021.090, 0.3399350
1021.572, 9.0851001E-02
1022.054, 0.3540040
1022.536, 0.6163330
1023.018, 0.9660340
1023.501, 0.9841310
1023.983, 1.309269
1024.465, 1.022919
1024.947, 1.612549
1025.429, 1.516052
1025.911, 1.311340
1026.393, 1.056091
1026.875, 0.3372190
1027.358, 1.242462
1027.840, 0.6343698
1028.322, 2.121765
1028.804, 0.5672000
1029.286, 0.4491270
1029.768, 0.9063720
1030.250, 0.8341370
1030.732, 7.1990997E-02
1031.214, 0.6303710
1031.697, 0.2579350
1032.179, 0.3323670
1032.661, 0.4280700
1033.143, 0.1250000
1033.625, 0.1132200
1034.107, 0.3384400
1034.589, 0.3394170
1035.071, 7.9163000E-02
1035.553, 0.3640750
1036.036, 0.1602170
1036.518, 7.1075000E-02
1037.000, 0.2166750
1037.482, 0.9024660
1037.964, 1.254669
1038.446, 0.6641540
1038.928, 0.9610900
1039.410, 3.549896
1039.893, 5.111511
1040.375, 3.536560
1040.857, 1.239197
1041.339, 0.5661320
1041.821, 1.255310
1042.303, 1.926910
1042.785, 2.756104
1043.267, 3.179352
1043.750, 2.926025
1044.232, 2.570801
1044.714, 2.382233
1045.196, 2.129303
1045.678, 1.261963
1046.160, 7.0587002E-02
1046.642, 5.6090999E-02
1047.124, 1.691956
1047.606, 2.954224
1048.089, 3.000458
1048.571, 3.024445
1049.053, 3.819885
1049.535, 4.575256
1050.017, 4.274109
1050.499, 3.188660
1050.981, 2.527344
1051.463, 2.435638
1051.945, 2.905487
1052.428, 4.727325
1052.910, 6.159210
1053.392, 6.060272
1053.874, 5.477295
1054.356, 5.437347
1054.838, 5.873260
1055.320, 6.281372
1055.802, 6.644623
1056.285, 6.681610
1056.767, 5.959442
1057.249, 5.316956
1057.731, 5.109711
1058.213, 5.221100
1058.695, 5.744751
1059.177, 6.445099
1059.659, 6.595520
1060.141, 5.805695
1060.624, 5.539948
1061.106, 7.350769
1061.588, 8.545135
1062.070, 6.983978
1062.552, 4.757782
1063.034, 3.911194
1063.516, 4.250702
1063.998, 4.645569
1064.480, 4.772614
1064.963, 5.385193
1065.445, 7.642609
1065.927, 9.408752
1066.409, 9.077179
1066.891, 8.127441
1067.373, 7.917328
1067.855, 8.332886
1068.337, 8.785767
1068.820, 9.140045
1069.302, 9.427887
1069.784, 9.593231
1070.266, 9.781708
1070.748, 9.837067
1071.230, 10.15317
1071.712, 11.74686
1072.194, 13.68195
1072.677, 13.64944
1073.159, 11.21069
1073.641, 9.614349
1074.123, 11.01303
1074.605, 12.65451
1075.087, 13.18890
1075.569, 13.31326
1076.051, 13.68195
1076.533, 14.05878
1077.016, 13.77936
1077.498, 12.87216
1077.980, 12.58148
1078.462, 13.96716
1078.944, 15.25659
1079.426, 15.59644
1079.908, 15.48560
1080.390, 15.08496
1080.872, 14.64117
1081.354, 14.54492
1081.837, 14.83923
1082.319, 15.08990
1082.801, 15.09195
1083.283, 15.10239
1083.765, 15.25165
1084.247, 15.44138
1084.729, 15.68906
1085.211, 15.82681
1085.694, 15.68900
1086.176, 15.36795
1086.658, 15.06125
1087.140, 14.77551
1087.622, 14.37823
1088.104, 13.58505
1088.586, 12.92133
1089.068, 12.81097
1089.551, 12.95825
1090.033, 13.03357
1090.515, 12.97205
1090.997, 12.75311
1091.479, 12.35596
1091.961, 11.98410
1092.443, 11.58609
1092.925, 11.29568
1093.407, 11.32025
1093.890, 11.46481
1094.372, 11.43219
1094.854, 11.32672
1095.336, 11.69104
1095.818, 12.72803
1096.300, 13.25055
1096.782, 12.68051
1097.264, 11.79828
1097.746, 10.42224
1098.229, 9.314240
1098.711, 9.400452
1099.193, 10.07883
1099.675, 10.12207
1100.157, 9.175537
1100.639, 8.539459
1101.121, 8.463837
1101.603, 8.811340
1102.086, 10.18362
1102.568, 11.28256
1103.050, 11.11395
1103.532, 10.28949
1104.014, 9.570770
1104.496, 9.039246
1104.978, 8.774597
1105.460, 8.996887
1105.943, 9.155731
1106.425, 8.836456
1106.907, 8.891998
1107.389, 10.34247
1107.871, 11.70868
1108.353, 11.16980
1108.835, 9.207855
1109.317, 8.197144
1109.799, 8.940430
1110.281, 9.074249
1110.764, 7.885345
1111.246, 6.795654
1111.728, 5.883698
1112.210, 5.514771
1112.692, 6.469543
1113.174, 8.100006
1113.656, 8.662140
1114.138, 7.863373
1114.621, 7.299164
1115.103, 7.068939
1115.585, 6.942200
1116.067, 6.996460
1116.549, 6.949524
1117.031, 6.513123
1117.513, 6.015808
1117.995, 6.127808
1118.478, 5.524445
1118.960, 4.901611
1119.442, 4.833618
1119.924, 3.664185
1120.406, 3.545563
1120.888, 3.652252
1121.370, 3.544373
1121.852, 3.714600
1122.334, 4.903687
1122.817, 6.756958
1123.299, 7.230408
1123.781, 5.968018
1124.263, 4.720612
1124.745, 3.311584
1125.227, 2.836670
1125.709, 3.971619
1126.191, 4.981171
1126.673, 4.296997
1127.156, 2.709625
1127.638, 2.169067
1128.120, 2.713318
1128.602, 3.225769
1129.084, 3.709991
1129.566, 4.191345
1130.048, 4.743073
1130.530, 4.575348
1131.013, 3.043182
1131.495, 1.285797
1131.977, 1.120026
1132.459, 2.169342
1132.941, 2.504272
1133.423, 2.189423
1133.905, 2.037018
1134.387, 2.139954
1134.870, 2.621185
1135.352, 3.532928
1135.834, 3.903656
1136.316, 2.597229
1136.798, 0.6829830
1137.280, 0.6020200
1137.762, 1.826782
1138.244, 2.442902
1138.726, 2.526520
1139.208, 3.309753
1139.691, 4.868500
1140.173, 5.133392
1140.655, 2.631989
1141.137, 8.3313003E-02
1141.619, 0.9301760
1142.101, 3.451324
1142.583, 3.338898
1143.065, 1.637665
1143.548, 0.6535030
1144.030, 0.6463010
1144.512, 1.110443
1144.994, 1.824646
1145.476, 2.475647
1145.958, 2.818481
1146.440, 2.980865
1146.922, 3.271393
1147.405, 3.308167
1147.887, 2.317871
1148.369, 0.7841490
1148.851, 0.3672490
1149.333, 0.9028630
1149.815, 0.9048770
1150.297, 0.1526790
1150.779, 0.4750060
1151.261, 0.1084290
1151.744, 0.3800660
1152.226, 1.523926
1152.708, 3.827454
1153.190, 4.197998
1153.672, 3.016144
1154.154, 2.118347
1154.636, 1.942963
1155.118, 1.830597
1155.600, 1.870575
1156.083, 1.555267
1156.565, 0.2351070
1157.047, 1.474121
1157.529, 0.2182010
1158.011, 2.945435
1158.493, 3.379883
1158.975, 1.499023
1159.457, 0.4152530
1159.940, 0.9971010
1160.422, 1.262085
1160.904, 0.8876340
1161.386, 0.5672910
1161.868, 0.6655580
1162.350, 0.7696530
1162.832, 0.5102840
1163.314, 0.8851725
1163.796, 0.6322630
1164.279, 1.444885
1164.761, 1.415192
1165.243, 1.683115
1165.725, 1.968336
1166.207, 2.083978
1166.689, 2.273712
1167.171, 2.546692
1167.653, 2.701874
1168.135, 3.055115
1168.618, 3.473480
1169.100, 3.038361
1169.582, 1.704529
1170.064, 0.7534480
1170.546, 0.3277890
1171.028, 0.5444950
1171.510, 1.440399
1171.992, 2.010864
1172.474, 1.381439
1172.957, 0.3139650
1173.439, 0.1802980
1173.921, 0.6658630
1174.403, 0.7960210
1174.885, 0.7070010
1175.367, 0.8957520
1175.849, 1.440765
1176.331, 2.426605
1176.814, 3.844513
1177.296, 4.624298
1177.778, 3.441864
1178.260, 1.648865
1178.742, 0.4691160
1179.224, 9.8876998E-02
1179.706, 0.3007200
1180.188, 1.161987
1180.671, 1.304382
1181.153, 0.7502750
1181.635, 0.9449460
1182.117, 2.770508
1182.599, 4.413574
1183.081, 5.210754
1183.563, 5.204468
1184.045, 3.829407
1184.527, 2.166992
1185.010, 1.013031
1185.492, 0.5005190
1185.974, 0.9942630
1186.456, 2.642761
1186.938, 3.259247
1187.420, 1.303284
1187.902, 0.1010130
1188.384, 0.3080140
1188.866, 1.235107
1189.349, 3.471802
1189.831, 5.405151
1190.313, 5.044708
1190.795, 3.028107
1191.277, 1.901367
1191.759, 1.899048
1192.241, 1.696075
1192.723, 1.092377
1193.206, 1.056793
1193.688, 1.931580
1194.170, 2.827484
1194.652, 3.221558
1195.134, 3.435059
1195.616, 3.951721
1196.098, 3.754883
1196.580, 4.215302
1197.063, 3.228607
1197.545, 2.495544
1198.027, 2.078125
1198.509, 1.719574
1198.991, 1.355835
1199.473, 1.180939
1199.955, 1.333923
1200.437, 1.665924
1200.919, 2.086334
1201.401, 2.483154
1201.884, 2.759583
1202.366, 2.818604
1202.848, 2.180756
1203.330, 1.179810
1203.812, 0.9338070
1204.294, 1.711517
1204.776, 2.615387
1205.258, 3.415009
1205.741, 3.616150
1206.223, 2.061920
1206.705, 0.6549070
1207.187, 1.364441
1207.669, 2.744812
1208.151, 2.883545
1208.633, 2.005341
1209.115, 1.524902
1209.598, 1.729218
1210.080, 2.029541
1210.562, 2.405457
1211.044, 2.693542
1211.526, 3.065155
1212.008, 3.067444
1212.490, 2.150421
1212.972, 1.147583
1213.454, 1.191833
1213.937, 0.7411637
1214.419, 1.490906
1214.901, 0.8115540
1215.383, 0.9941410
1215.865, 1.291168
1216.347, 3.011414
1216.829, 3.485382
1217.311, 3.202026
1217.793, 2.351593
1218.276, 1.720245
1218.758, 2.661438
1219.240, 4.230743
1219.722, 3.161407
1220.204, 0.4773560
1220.686, 7.3090002E-02
1221.168, 1.636841
1221.650, 3.019470
1222.133, 3.545197
1222.615, 2.896973
1223.097, 0.7660220
1223.579, 0.9537350
1224.061, 1.2024000E-02
1224.543, 1.595642
1225.025, 2.017151
1225.507, 1.706238
1225.990, 0.6503600
1226.472, 0.4527890
1226.954, 0.1474000
1227.436, 1.590485
1227.918, 2.693237
1228.400, 2.151672
1228.882, 1.748413
1229.364, 2.002991
1229.846, 2.281799
1230.328, 2.424255
1230.811, 2.351013
1231.293, 1.807312
1231.775, 1.119263
1232.257, 0.8905330
1232.739, 0.7788872
1233.221, 0.7432814
1233.703, 1.153534
1234.185, 1.341797
1234.668, 1.984070
1235.150, 2.810059
1235.632, 3.796722
1236.114, 4.337463
1236.596, 3.767090
1237.078, 2.836700
1237.560, 3.044037
1238.042, 3.780701
1238.525, 2.687256
1239.007, 0.5594480
1239.489, 0.1729430
1239.971, 1.339172
1240.453, 1.972351
1240.935, 1.529572
1241.417, 1.146423
1241.899, 1.485565
1242.381, 2.201996
1242.864, 3.466888
1243.346, 4.562500
1243.828, 4.855896
1244.310, 4.633942
1244.792, 4.033661
1245.274, 3.356476
1245.756, 3.103271
1246.238, 3.311676
1246.720, 3.358124
1247.203, 2.888367
1247.685, 2.507446
1248.167, 2.059448
1248.649, 2.055145
1249.131, 2.936615
1249.613, 3.786560
1250.095, 3.741852
1250.577, 3.211212
1251.059, 3.036621
1251.542, 2.965637
1252.024, 1.893341
1252.506, 0.1498410
1252.988, 0.8736270
1253.470, 6.0180999E-02
1253.952, 1.123535
1254.434, 1.640198
1254.916, 2.217651
1255.399, 3.006592
1255.881, 3.465546
1256.363, 3.176300
1256.845, 2.606293
1257.327, 2.045807
1257.809, 1.728790
1258.291, 2.349060
1258.773, 3.302490
1259.255, 2.945953
1259.738, 1.289368
1260.220, 0.9417720
1260.702, 3.629578
1261.184, 5.366638
1261.666, 3.831482
1262.148, 2.484375
1262.630, 3.025177
1263.112, 3.990784
1263.594, 4.232025
1264.077, 4.144318
1264.559, 4.237213
1265.041, 4.458984
1265.523, 4.379211
1266.005, 3.931763
1266.487, 3.501648
1266.969, 3.043030
1267.451, 3.183990
1267.934, 4.083191
1268.416, 4.717529
1268.898, 4.398102
1269.380, 3.184662
1269.862, 1.434631
1270.344, 0.1379390
1270.826, 0.8606260
1271.308, 2.999725
1271.791, 3.584778
1272.273, 3.092407
1272.755, 2.804199
1273.237, 2.938080
1273.719, 3.087463
1274.201, 3.143677
1274.683, 2.912750
1275.165, 1.791077
1275.647, 1.107422
1276.130, 1.853943
1276.612, 2.602478
1277.094, 2.289581
1277.576, 1.789520
1278.058, 2.090302
1278.540, 1.698730
1279.022, 2.865814
1279.504, 1.872284
1279.986, 1.776215
1280.469, 2.767059
1280.951, 3.317505
1281.433, 3.248932
1281.915, 2.659485
1282.397, 1.567444
1282.879, 0.5386350
1283.361, 1.8310000E-03
1283.843, 1.4282000E-02
1284.326, 0.3577880
1284.808, 0.0000000E+00
##END=



