##NAMES=Sanbornite
##RRUFFID=R060489
##IDEAL CHEMISTRY=BaSi_2_O_5_
##LOCALITY=Big Creek, Fresno County, California, USA
##OWNER=RRUFF
##SOURCE=Michael Scott
##DESCRIPTION=Colorless cleavage plate
##STATUS=The identification of this mineral has been confirmed by X-ray diffraction and chemical analysis
##URL=rruff.info/R060489
##MEASURED CHEMISTRY=Ba_1.00_Si_1.97_O_5_
90.26532, 0.0000000E+00
90.74744, 1.3927000E-02
91.22955, 0.3318560
91.71167, 1.297916
92.19379, 2.286171
92.67590, 3.234520
93.15802, 3.709316
93.64014, 3.058990
94.12225, 1.907238
94.60437, 0.9055060
95.08649, 0.6508220
95.56860, 0.8509410
96.05072, 0.7797550
96.53284, 0.4506070
97.01495, 0.1149100
97.49707, 0.2219810
97.97919, 0.5626530
98.46130, 1.299516
98.94342, 2.550476
99.42554, 3.707340
99.90765, 6.070107
100.3898, 8.041294
100.8719, 10.55769
101.3540, 14.59711
101.8361, 19.73190
102.3182, 27.53249
102.8004, 39.10843
103.2825, 55.25255
103.7646, 71.58485
104.2467, 91.00381
104.7288, 109.3952
105.2109, 116.2895
105.6931, 107.8921
106.1752, 94.70883
106.6573, 80.87669
107.1394, 64.28392
107.6215, 50.68699
108.1036, 40.82125
108.5858, 34.17352
109.0679, 28.32685
109.5500, 22.62036
110.0321, 18.08163
110.5142, 15.27567
110.9963, 15.20886
111.4785, 15.63856
111.9606, 16.49878
112.4427, 17.77350
112.9248, 18.99177
113.4069, 20.12988
113.8890, 21.15863
114.3712, 22.06793
114.8533, 22.23738
115.3354, 22.82827
115.8175, 24.29445
116.2996, 26.72011
116.7817, 29.37788
117.2639, 31.85309
117.7460, 34.46551
118.2281, 37.62159
118.7102, 41.92675
119.1923, 46.51316
119.6744, 50.95332
120.1566, 55.28573
120.6387, 59.12381
121.1208, 62.32467
121.6029, 64.84822
122.0850, 66.56721
122.5671, 67.61079
123.0493, 67.73008
123.5314, 66.61191
124.0135, 64.08700
124.4956, 60.59267
124.9777, 56.29412
125.4598, 51.30009
125.9420, 46.09526
126.4241, 40.47586
126.9062, 34.91568
127.3883, 30.30685
127.8704, 26.93499
128.3525, 24.45890
128.8347, 22.51206
129.3168, 21.07594
129.7989, 19.94414
130.2810, 18.89143
130.7631, 17.97984
131.2452, 17.45167
131.7274, 17.50596
132.2095, 17.93483
132.6916, 18.04539
133.1737, 17.83242
133.6558, 17.97172
134.1379, 19.10106
134.6201, 21.07150
135.1022, 22.82056
135.5843, 23.94947
136.0664, 24.59938
136.5485, 25.57138
137.0306, 26.86859
137.5128, 28.52194
137.9949, 30.61241
138.4770, 33.02121
138.9591, 35.84086
139.4412, 39.26927
139.9233, 43.33670
140.4055, 47.49888
140.8876, 51.63669
141.3697, 56.01338
141.8518, 61.00219
142.3339, 66.41358
142.8160, 72.78902
143.2982, 80.33396
143.7803, 88.97871
144.2624, 98.74110
144.7445, 109.1638
145.2266, 120.8957
145.7087, 134.8981
146.1909, 151.9973
146.6730, 170.5885
147.1551, 190.5744
147.6372, 213.9890
148.1193, 235.1533
148.6014, 255.9606
149.0836, 274.8366
149.5657, 287.0400
150.0478, 293.0995
150.5299, 291.8556
151.0120, 282.6691
151.4941, 259.4593
151.9763, 235.6741
152.4584, 210.2728
152.9405, 183.9597
153.4226, 159.7555
153.9047, 137.3614
154.3868, 117.4522
154.8690, 100.3957
155.3511, 87.32403
155.8332, 75.96022
156.3153, 66.37495
156.7974, 58.46533
157.2795, 51.52201
157.7617, 45.72842
158.2438, 40.66510
158.7259, 36.03099
159.2080, 31.61759
159.6901, 27.74919
160.1722, 24.66320
160.6544, 22.34031
161.1365, 20.22471
161.6186, 17.93870
162.1007, 15.85783
162.5828, 14.27489
163.0649, 13.79087
163.5471, 13.42811
164.0292, 12.71677
164.5113, 11.63930
164.9934, 10.55364
165.4755, 9.552811
165.9576, 8.663189
166.4398, 7.929237
166.9219, 7.439686
167.4040, 7.049183
167.8861, 6.694416
168.3682, 6.373726
168.8503, 6.025497
169.3325, 5.493916
169.8146, 4.919792
170.2967, 4.536625
170.7788, 4.689545
171.2609, 4.938313
171.7430, 4.858078
172.2252, 4.398590
172.7073, 3.834320
173.1894, 3.342678
173.6715, 2.905098
174.1536, 2.495045
174.6357, 2.167503
175.1179, 1.824661
175.6000, 1.298244
176.0821, 0.5440750
176.5642, 0.1962240
177.0463, 0.7295840
177.5284, 1.065201
178.0106, 1.225044
178.4927, 1.139252
178.9748, 0.9046750
179.4569, 0.6742780
179.9390, 0.4531710
180.4211, 0.2609210
180.9033, 0.1193050
181.3854, 2.3708001E-02
181.8675, 4.2206001E-02
182.3496, 7.7141002E-02
182.8317, 9.0244003E-02
183.3138, 0.1145440
183.7960, 0.1607130
184.2781, 0.1954350
184.7602, 0.1009290
185.2423, 9.6165001E-02
185.7244, 0.1698840
186.2065, 0.1000480
186.6887, 0.6235810
187.1708, 1.058773
187.6529, 1.348690
188.1350, 1.577633
188.6171, 1.937710
189.0992, 2.425537
189.5814, 2.784969
190.0635, 2.728889
190.5456, 2.338043
191.0277, 2.185081
191.5098, 2.381516
191.9919, 2.766109
192.4741, 2.956188
192.9562, 2.936661
193.4383, 3.028484
193.9204, 3.559792
194.4025, 4.495026
194.8846, 5.192394
195.3668, 5.514915
195.8489, 5.628666
196.3310, 5.999386
196.8131, 6.677475
197.2952, 7.229992
197.7773, 7.306133
198.2595, 6.890423
198.7416, 6.524487
199.2237, 6.335819
199.7058, 6.187649
200.1879, 5.662464
200.6700, 4.697506
201.1522, 3.620396
201.6343, 2.606125
202.1164, 1.646454
202.5985, 0.8481180
203.0806, 0.2696420
203.5627, 0.1575580
204.0449, 0.6544490
204.5270, 1.247654
205.0091, 1.825161
205.4912, 2.358566
205.9733, 2.883923
206.4554, 3.118042
206.9376, 2.923031
207.4197, 2.443756
207.9018, 2.235832
208.3839, 2.364594
208.8660, 2.597878
209.3481, 2.824383
209.8303, 3.089252
210.3124, 3.135334
210.7945, 2.879139
211.2766, 2.392063
211.7587, 1.923622
212.2408, 1.424809
212.7230, 1.044712
213.2051, 0.9176750
213.6872, 1.140255
214.1693, 1.283691
214.6514, 1.295403
215.1335, 1.193905
215.6157, 1.083652
216.0978, 1.009621
216.5799, 0.8424260
217.0620, 0.8760372
217.5441, 0.9415375
218.0262, 0.9088750
218.5084, 1.165905
218.9905, 1.165874
219.4726, 1.154945
219.9547, 1.111393
220.4368, 1.097366
220.9189, 1.151337
221.4011, 1.284485
221.8832, 1.469971
222.3653, 1.747086
222.8474, 2.077175
223.3295, 2.290031
223.8116, 2.318443
224.2938, 2.325596
224.7759, 2.404491
225.2580, 2.562466
225.7401, 2.778767
226.2222, 3.101376
226.7043, 3.481277
227.1865, 3.744728
227.6686, 3.917645
228.1507, 3.924400
228.6328, 3.665234
229.1149, 2.916092
229.5970, 2.434521
230.0792, 2.332211
230.5613, 2.531666
231.0434, 2.729401
231.5255, 2.884727
232.0076, 3.083817
232.4897, 3.386723
232.9719, 3.873383
233.4540, 4.272678
233.9361, 4.587650
234.4182, 4.784527
234.9003, 4.772278
235.3824, 4.425312
235.8646, 4.090420
236.3467, 3.942738
236.8288, 4.017860
237.3109, 4.234539
237.7930, 4.612572
238.2751, 5.125938
238.7573, 5.691502
239.2394, 6.358784
239.7215, 6.996716
240.2036, 7.528019
240.6857, 7.823132
241.1678, 8.306641
241.6500, 9.049984
242.1321, 9.958065
242.6142, 10.80944
243.0963, 11.59655
243.5784, 12.32043
244.0605, 12.98029
244.5427, 13.54910
245.0248, 14.13757
245.5069, 14.57851
245.9890, 15.09584
246.4711, 16.22250
246.9532, 18.29375
247.4354, 20.42751
247.9175, 22.28835
248.3996, 23.85440
248.8817, 25.21965
249.3638, 26.15274
249.8459, 27.01747
250.3281, 28.55367
250.8102, 31.19445
251.2923, 33.76452
251.7744, 35.88757
252.2565, 37.46112
252.7386, 38.89141
253.2208, 39.95040
253.7029, 41.03415
254.1850, 42.81651
254.6671, 45.52386
255.1492, 48.49894
255.6313, 51.50620
256.1135, 54.48235
256.5956, 57.84267
257.0777, 61.65014
257.5598, 65.73307
258.0419, 69.77587
258.5240, 73.43864
259.0062, 77.73273
259.4883, 83.05227
259.9704, 89.35156
260.4525, 95.85106
260.9346, 102.2750
261.4167, 109.1158
261.8989, 116.8407
262.3810, 125.1599
262.8631, 134.9235
263.3452, 146.1600
263.8273, 159.0347
264.3094, 173.6644
264.7916, 190.6013
265.2737, 208.8528
265.7558, 227.7968
266.2379, 247.3627
266.7200, 267.6167
267.2021, 289.9624
267.6843, 313.6178
268.1664, 332.3086
268.6485, 346.4625
269.1306, 354.8054
269.6127, 355.5146
270.0948, 347.7120
270.5770, 336.0092
271.0591, 320.2350
271.5412, 301.2541
272.0233, 282.3349
272.5054, 263.2999
272.9875, 245.6599
273.4697, 230.3745
273.9518, 217.2263
274.4339, 207.1010
274.9160, 200.3786
275.3981, 196.5984
275.8802, 194.4676
276.3624, 194.1295
276.8445, 195.0330
277.3266, 196.8418
277.8087, 199.5424
278.2908, 203.4650
278.7729, 208.8021
279.2551, 215.1792
279.7372, 221.3299
280.2193, 227.0529
280.7014, 234.0656
281.1835, 243.4890
281.6656, 255.3034
282.1478, 268.0504
282.6299, 281.5815
283.1120, 296.2133
283.5941, 312.5150
284.0762, 330.5859
284.5583, 349.8612
285.0405, 370.0466
285.5226, 391.2381
286.0047, 414.3745
286.4868, 439.5409
286.9689, 466.3913
287.4510, 494.7675
287.9332, 524.6272
288.4153, 555.3762
288.8974, 586.5090
289.3795, 618.0248
289.8616, 649.4227
290.3438, 680.9084
290.8259, 710.8215
291.3080, 738.7536
291.7901, 763.9671
292.2722, 783.7256
292.7543, 797.3880
293.2365, 804.6888
293.7186, 804.5579
294.2007, 796.9825
294.6828, 782.9370
295.1649, 762.0368
295.6470, 735.2346
296.1292, 704.6656
296.6113, 670.3820
297.0934, 633.6526
297.5755, 595.4114
298.0576, 555.6275
298.5397, 516.0175
299.0219, 476.4913
299.5040, 437.6194
299.9861, 401.1036
300.4682, 367.2300
300.9503, 335.9568
301.4324, 306.6789
301.9146, 279.7515
302.3967, 255.3873
302.8788, 234.8173
303.3609, 216.7661
303.8430, 199.8232
304.3251, 183.8027
304.8073, 168.8717
305.2894, 154.9064
305.7715, 142.0822
306.2536, 130.4219
306.7357, 120.0836
307.2178, 110.9725
307.7000, 103.4612
308.1821, 97.70016
308.6642, 92.25664
309.1463, 85.74092
309.6284, 78.94189
310.1105, 73.02794
310.5927, 68.99237
311.0748, 65.65771
311.5569, 61.97414
312.0390, 57.96586
312.5211, 54.72165
313.0032, 53.07098
313.4854, 52.34263
313.9675, 51.83098
314.4496, 51.53336
314.9317, 51.26094
315.4138, 50.66286
315.8959, 49.86468
316.3781, 49.68283
316.8602, 50.79900
317.3423, 52.50476
317.8244, 54.32837
318.3065, 56.40190
318.7886, 58.21375
319.2708, 59.26115
319.7529, 59.86228
320.2350, 60.91302
320.7171, 62.66362
321.1992, 64.97720
321.6813, 67.80743
322.1635, 71.13863
322.6456, 74.79259
323.1277, 78.66411
323.6098, 82.90501
324.0919, 87.74783
324.5740, 91.96417
325.0562, 97.83044
325.5383, 105.9222
326.0204, 116.2415
326.5025, 128.9273
326.9846, 143.4948
327.4667, 160.6056
327.9489, 181.1337
328.4310, 204.2292
328.9131, 231.7004
329.3952, 262.7590
329.8773, 297.2715
330.3594, 341.2576
330.8416, 394.5969
331.3237, 456.9078
331.8058, 529.1489
332.2879, 623.5638
332.7700, 709.0168
333.2521, 794.0092
333.7343, 870.4878
334.2164, 897.9243
334.6985, 865.2582
335.1806, 800.5753
335.6627, 712.2988
336.1448, 588.3666
336.6270, 479.9348
337.1091, 389.2903
337.5912, 315.2119
338.0733, 255.1978
338.5554, 211.2800
339.0375, 176.8341
339.5197, 150.3809
340.0018, 132.3635
340.4839, 117.5731
340.9660, 106.5680
341.4481, 98.23978
341.9302, 92.04547
342.4124, 88.09708
342.8945, 84.10424
343.3766, 79.46754
343.8587, 74.19703
344.3408, 67.97540
344.8229, 60.72243
345.3051, 53.33947
345.7872, 46.31792
346.2693, 39.77474
346.7514, 34.36355
347.2335, 30.51673
347.7156, 27.58862
348.1978, 24.33448
348.6799, 20.79867
349.1620, 17.66581
349.6441, 15.55135
350.1262, 14.17670
350.6083, 12.95328
351.0905, 11.84294
351.5726, 10.72354
352.0547, 9.259644
352.5368, 7.633640
353.0189, 6.381332
353.5010, 6.065350
353.9832, 6.095482
354.4653, 5.762375
354.9474, 5.025333
355.4295, 4.201527
355.9116, 3.446522
356.3937, 2.782619
356.8759, 2.254177
357.3580, 2.032169
357.8401, 1.814281
358.3222, 1.307449
358.8043, 0.5653500
359.2864, 4.0713999E-02
359.7686, 0.2233430
360.2507, 0.2451170
360.7328, 0.3136600
361.2149, 0.4767760
361.6970, 0.6671490
362.1791, 0.9452860
362.6613, 1.240835
363.1434, 1.385096
363.6255, 1.134912
364.1076, 0.8914470
364.5897, 0.8561760
365.0718, 1.106197
365.5540, 1.312454
366.0361, 1.304058
366.5182, 1.275274
367.0003, 1.445711
367.4824, 2.334400
367.9645, 2.907154
368.4467, 2.736925
368.9288, 1.752178
369.4109, 1.201979
369.8930, 1.511797
370.3751, 1.984108
370.8572, 2.116999
371.3394, 1.560432
371.8215, 1.237785
372.3036, 1.346174
372.7857, 1.721144
373.2678, 1.780039
373.7499, 1.367577
374.2321, 0.9306640
374.7142, 0.6931670
375.1963, 0.7213380
375.6784, 0.6497100
376.1605, 0.4547560
376.6426, 0.2186530
377.1248, 1.0103000E-02
377.6069, 0.2035390
378.0890, 0.2061880
378.5711, 0.2351490
379.0532, 0.2525066
379.5353, 1.031481
380.0175, 0.1945040
380.4996, 0.7034360
380.9817, 0.7444520
381.4638, 4.1012000E-02
381.9459, 0.4173200
382.4280, 0.3775120
382.9102, 4.8126001E-02
383.3923, 0.2165950
383.8744, 0.4209690
384.3565, 0.5947150
384.8386, 0.8193150
385.3207, 1.017540
385.8029, 0.9937130
386.2850, 0.7000350
386.7671, 0.3325270
387.2492, 7.9100002E-03
387.7313, 0.2745060
388.2134, 0.3502860
388.6956, 2.2608001E-02
389.1777, 0.4769060
389.6598, 0.6437530
390.1419, 0.5338650
390.6240, 0.4313510
391.1061, 0.5615330
391.5883, 0.7665710
392.0704, 0.8831560
392.5525, 0.8612560
393.0346, 0.7513830
393.5167, 0.4441510
393.9988, 4.9028002E-02
394.4810, 0.1319980
394.9631, 0.3046440
395.4452, 0.7495590
395.9273, 0.8286420
396.4094, 0.3058470
396.8915, 3.7459999E-02
397.3737, 0.4284340
397.8558, 1.075457
398.3379, 1.481558
398.8200, 1.441116
399.3021, 1.319567
399.7842, 1.099636
400.2664, 0.7825220
400.7485, 0.7219280
401.2306, 1.104399
401.7127, 1.561720
402.1948, 1.865454
402.6769, 1.974016
403.1591, 2.021791
403.6412, 2.037022
404.1233, 1.986122
404.6054, 1.733435
405.0875, 1.176304
405.5696, 0.7281670
406.0518, 0.5827830
406.5339, 0.7483840
407.0160, 0.9507480
407.4981, 1.213787
407.9802, 1.442608
408.4623, 1.530361
408.9445, 1.477921
409.4266, 1.309200
409.9087, 0.9578080
410.3908, 0.5547290
410.8729, 0.4476320
411.3550, 0.6294670
411.8372, 0.8690050
412.3193, 1.042728
412.8014, 1.149529
413.2835, 1.179691
413.7656, 1.123095
414.2477, 1.027018
414.7299, 0.9108960
415.2120, 0.7923490
415.6941, 0.7167130
416.1762, 0.6922530
416.6583, 0.7272220
417.1404, 0.8919750
417.6226, 1.177055
418.1047, 1.344755
418.5868, 1.154175
419.0689, 0.8262100
419.5510, 0.5663530
420.0331, 0.4202290
420.5153, 0.3550740
420.9974, 0.4506550
421.4795, 0.6452120
421.9616, 0.7368430
422.4437, 0.5440430
422.9258, 0.3288150
423.4080, 0.2176150
423.8901, 0.2708700
424.3722, 0.2793120
424.8543, 0.2483430
425.3364, 9.4821997E-02
425.8185, 0.2133060
426.3007, 0.8437630
426.7828, 1.217081
427.2649, 1.218054
427.7470, 0.9599630
428.2291, 0.8300910
428.7112, 0.8195880
429.1934, 0.8542630
429.6755, 0.9482980
430.1576, 1.152346
430.6397, 1.339493
431.1218, 1.476587
431.6039, 1.563259
432.0861, 1.665613
432.5682, 1.803766
433.0503, 1.860748
433.5324, 1.755474
434.0145, 1.523972
434.4966, 1.327049
434.9788, 1.168055
435.4609, 0.9731390
435.9430, 0.5801010
436.4251, 0.1334820
436.9072, 3.6063999E-02
437.3893, 0.4101980
437.8715, 0.7860600
438.3536, 0.6749250
438.8357, 0.2273120
439.3178, 0.2318820
439.7999, 0.6139180
440.2820, 0.9514620
440.7642, 1.164896
441.2463, 1.247704
441.7284, 1.565195
442.2105, 2.446768
442.6926, 3.602966
443.1747, 4.759434
443.6569, 5.988178
444.1390, 7.006466
444.6211, 7.507351
445.1032, 7.696228
445.5853, 8.154905
446.0674, 9.026215
446.5496, 10.20951
447.0317, 11.64745
447.5138, 13.29592
447.9959, 15.29338
448.4780, 17.71960
448.9601, 20.46440
449.4423, 23.41724
449.9244, 26.31981
450.4065, 29.85583
450.8886, 34.01988
451.3707, 38.87170
451.8528, 44.93295
452.3350, 52.40164
452.8171, 60.71146
453.2992, 70.53736
453.7813, 81.94769
454.2634, 90.36046
454.7455, 95.64254
455.2277, 98.34609
455.7098, 98.22527
456.1919, 95.69021
456.6740, 93.59752
457.1561, 92.67995
457.6382, 92.95482
458.1204, 94.81812
458.6025, 98.15218
459.0846, 101.9006
459.5667, 106.4442
460.0488, 110.5638
460.5309, 112.7115
461.0131, 112.6035
461.4952, 110.8315
461.9773, 106.8121
462.4594, 101.6205
462.9415, 96.76535
463.4236, 92.74980
463.9058, 89.32474
464.3879, 86.28740
464.8700, 83.70952
465.3521, 81.87244
465.8342, 81.01817
466.3163, 80.76965
466.7985, 80.83186
467.2806, 80.46695
467.7627, 81.73447
468.2448, 84.66386
468.7269, 89.22331
469.2090, 95.29948
469.6912, 102.4046
470.1733, 112.0690
470.6554, 124.7684
471.1375, 140.3875
471.6196, 157.5200
472.1017, 175.6350
472.5839, 196.8034
473.0660, 221.8058
473.5481, 250.5281
474.0302, 286.2664
474.5123, 327.9974
474.9944, 380.2354
475.4766, 454.4134
475.9587, 547.5825
476.4408, 642.8804
476.9229, 753.5224
477.4050, 849.2861
477.8871, 877.2491
478.3693, 840.3058
478.8514, 764.3865
479.3335, 639.0948
479.8156, 496.7724
480.2977, 375.6750
480.7798, 283.1928
481.2620, 210.9527
481.7441, 160.5130
482.2262, 126.0792
482.7083, 99.11048
483.1904, 79.81696
483.6725, 64.52494
484.1547, 52.76504
484.6368, 44.40011
485.1189, 37.51134
485.6010, 32.26034
486.0831, 28.14343
486.5652, 24.96265
487.0474, 23.01910
487.5295, 21.28773
488.0116, 19.59361
488.4937, 18.24939
488.9758, 17.70782
489.4579, 18.08318
489.9401, 18.94385
490.4222, 20.24763
490.9043, 21.95016
491.3864, 23.92543
491.8685, 26.20245
492.3506, 28.66381
492.8328, 31.77536
493.3149, 35.13673
493.7970, 36.93219
494.2791, 36.96593
494.7612, 35.70552
495.2433, 33.35670
495.7255, 30.11518
496.2076, 26.44511
496.6897, 22.09293
497.1718, 17.79849
497.6539, 14.11745
498.1360, 11.10170
498.6182, 8.886372
499.1003, 8.069641
499.5824, 7.744400
500.0645, 7.291935
500.5466, 6.558517
501.0287, 6.021851
501.5109, 5.939358
501.9930, 6.065098
502.4751, 6.154922
502.9572, 5.937920
503.4393, 5.972439
503.9214, 6.330471
504.4036, 6.979389
504.8857, 7.848812
505.3678, 9.097763
505.8499, 10.30616
506.3320, 11.25163
506.8141, 11.89959
507.2963, 12.82644
507.7784, 14.10484
508.2605, 15.50383
508.7426, 16.65418
509.2247, 17.60645
509.7068, 19.17434
510.1890, 21.59544
510.6711, 24.52339
511.1532, 27.47727
511.6353, 30.44468
512.1174, 33.28777
512.5995, 35.66163
513.0817, 38.04881
513.5638, 40.99579
514.0459, 44.51234
514.5280, 48.47302
515.0101, 52.86881
515.4922, 57.65506
515.9744, 62.72099
516.4565, 68.00224
516.9386, 73.71619
517.4207, 79.63470
517.9028, 86.09009
518.3849, 93.62706
518.8671, 103.0199
519.3492, 112.7764
519.8313, 122.4020
520.3134, 131.9080
520.7955, 142.8336
521.2776, 155.4938
521.7598, 169.1621
522.2419, 183.1962
522.7240, 197.4696
523.2061, 213.1544
523.6882, 230.4521
524.1703, 248.9216
524.6525, 267.4906
525.1346, 286.3666
525.6167, 307.9325
526.0988, 332.7278
526.5809, 360.3488
527.0630, 389.6346
527.5452, 420.7589
528.0273, 455.1394
528.5094, 493.8233
528.9915, 536.3398
529.4736, 582.1832
529.9557, 631.4592
530.4379, 685.8977
530.9200, 748.6307
531.4021, 816.7009
531.8842, 887.4806
532.3663, 960.4668
532.8484, 1035.740
533.3306, 1117.221
533.8127, 1200.571
534.2948, 1274.575
534.7769, 1345.605
535.2590, 1400.208
535.7411, 1437.438
536.2233, 1457.102
536.7054, 1450.079
537.1875, 1412.307
537.6696, 1355.877
538.1517, 1285.510
538.6339, 1201.159
539.1160, 1109.984
539.5981, 1010.209
540.0802, 910.8492
540.5623, 820.0632
541.0444, 737.8476
541.5266, 661.8547
542.0087, 591.3403
542.4908, 526.7118
542.9729, 469.5956
543.4550, 420.2043
543.9371, 377.4391
544.4193, 342.7890
544.9014, 312.7057
545.3835, 284.1694
545.8656, 256.8776
546.3477, 232.3456
546.8298, 211.4159
547.3120, 193.0552
547.7941, 176.5761
548.2762, 162.2762
548.7583, 149.0752
549.2404, 136.6642
549.7225, 125.3406
550.2047, 115.7356
550.6868, 108.4730
551.1689, 101.6910
551.6510, 94.98889
552.1331, 88.40996
552.6152, 82.44639
553.0974, 77.14040
553.5795, 72.24275
554.0616, 67.70364
554.5437, 63.48227
555.0258, 59.13553
555.5079, 54.55856
555.9901, 50.39102
556.4722, 47.37387
556.9543, 45.18734
557.4364, 43.20060
557.9185, 41.33815
558.4006, 39.45473
558.8828, 37.35403
559.3649, 35.13027
559.8470, 32.95411
560.3291, 30.78547
560.8112, 28.78903
561.2933, 27.02927
561.7755, 25.50985
562.2576, 24.13369
562.7397, 22.89577
563.2218, 21.80441
563.7039, 20.88632
564.1860, 20.26513
564.6682, 19.47314
565.1503, 18.37691
565.6324, 17.26830
566.1145, 16.60660
566.5966, 16.44906
567.0787, 16.15685
567.5609, 15.58564
568.0430, 14.81859
568.5251, 13.97586
569.0072, 13.07320
569.4893, 12.29475
569.9714, 11.78157
570.4536, 11.41503
570.9357, 11.06034
571.4178, 10.71271
571.8999, 10.33415
572.3820, 9.852940
572.8641, 9.362823
573.3463, 8.944145
573.8284, 8.605175
574.3105, 8.347458
574.7926, 8.343700
575.2747, 8.358078
575.7568, 8.088478
576.2390, 7.140450
576.7211, 6.397072
577.2032, 6.017941
577.6853, 5.906399
578.1674, 5.748554
578.6495, 5.522976
579.1317, 5.317276
579.6138, 5.200333
580.0959, 5.148155
580.5780, 4.945580
581.0601, 4.581196
581.5422, 4.162407
582.0244, 3.703838
582.5065, 3.262863
582.9886, 3.067799
583.4707, 3.206966
583.9528, 3.239826
584.4349, 2.511335
584.9171, 1.486252
585.3992, 0.8608470
585.8813, 1.396629
586.3634, 1.816689
586.8455, 1.348377
587.3276, 0.3388900
587.8098, 0.2404800
588.2919, 0.2904280
588.7740, 0.7716410
589.2561, 0.8042600
589.7382, 0.3770640
590.2203, 0.1778490
590.7025, 0.3073600
591.1846, 0.4896560
591.6667, 0.5650060
592.1488, 0.5309580
592.6309, 0.3816340
593.1130, 0.3703997
593.5952, 0.2073760
594.0773, 0.2197360
594.5594, 4.0724002E-02
595.0415, 9.6530002E-03
595.5236, 0.2512630
596.0057, 0.6012130
596.4879, 0.9652480
596.9700, 1.293539
597.4521, 1.458448
597.9342, 1.213945
598.4163, 0.9796750
598.8984, 0.9932170
599.3806, 1.233418
599.8627, 1.477308
600.3448, 1.863325
600.8269, 2.076504
601.3090, 1.913809
601.7911, 1.210867
602.2733, 0.7877600
602.7554, 0.7201100
603.2375, 0.8213600
603.7196, 0.9436780
604.2017, 1.096561
604.6838, 1.223452
605.1660, 1.327864
605.6481, 1.388655
606.1302, 1.322445
606.6123, 1.162960
607.0944, 1.079233
607.5765, 1.231733
608.0587, 1.394823
608.5408, 1.249870
609.0229, 0.8743670
609.5050, 0.5507850
609.9871, 0.5274520
610.4692, 0.5256230
610.9514, 0.2961410
611.4335, 0.2042680
611.9156, 0.4678270
612.3977, 0.1279390
612.8798, 0.2962070
613.3619, 0.4964100
613.8441, 0.4069790
614.3262, 0.2427960
614.8083, 4.4649001E-02
615.2904, 0.3514960
615.7725, 0.5203900
616.2546, 0.5457440
616.7368, 0.6507420
617.2189, 0.8986910
617.7010, 1.168228
618.1831, 1.249992
618.6652, 1.178295
619.1473, 1.086132
619.6295, 0.9707430
620.1116, 0.9383410
620.5937, 1.111008
621.0758, 1.437084
621.5579, 1.754251
622.0400, 2.082933
622.5222, 2.316610
623.0043, 2.335361
623.4864, 2.066017
623.9685, 1.924397
624.4506, 2.093746
624.9327, 2.282515
625.4149, 2.280100
625.8970, 1.979300
626.3791, 1.825182
626.8612, 1.809820
627.3433, 1.958017
627.8254, 2.486176
628.3076, 3.362698
628.7897, 3.764412
629.2718, 3.313295
629.7539, 2.564270
630.2360, 2.405943
630.7181, 2.705154
631.2003, 3.035585
631.6824, 3.157507
632.1645, 3.225517
632.6466, 3.410143
633.1287, 3.682472
633.6108, 3.827625
634.0930, 3.556486
634.5751, 3.324640
635.0572, 3.433615
635.5393, 4.019609
636.0214, 4.253256
636.5035, 3.922987
636.9857, 3.500252
637.4678, 3.353327
637.9499, 3.522053
638.4320, 3.691549
638.9141, 3.848646
639.3962, 3.984327
639.8784, 4.088255
640.3605, 4.160147
640.8426, 4.200098
641.3247, 4.205816
641.8068, 4.185556
642.2889, 4.113945
642.7711, 4.020271
643.2532, 3.970539
643.7353, 3.916309
644.2174, 4.003315
644.6995, 4.404118
645.1816, 5.050829
645.6638, 5.438923
646.1459, 5.395908
646.6280, 5.180090
647.1101, 4.778467
647.5922, 4.163652
648.0743, 3.970116
648.5565, 4.328459
649.0386, 4.775112
649.5207, 4.942135
650.0028, 4.861441
650.4849, 4.800320
650.9670, 4.782244
651.4492, 4.751307
651.9313, 4.620712
652.4134, 4.453358
652.8955, 4.391438
653.3776, 4.572351
653.8597, 4.602539
654.3419, 3.964144
654.8240, 3.078920
655.3061, 2.611792
655.7882, 3.129711
656.2703, 3.683733
656.7524, 4.144617
657.2346, 4.465885
657.7167, 4.511873
658.1988, 4.161495
658.6809, 3.793043
659.1630, 3.573950
659.6451, 3.495665
660.1273, 3.267839
660.6094, 2.857492
661.0915, 2.480200
661.5736, 2.287422
662.0557, 2.224218
662.5378, 2.213396
663.0200, 2.251247
663.5021, 2.279417
663.9842, 2.244553
664.4663, 2.202833
664.9484, 2.212616
665.4305, 2.316942
665.9127, 2.321661
666.3948, 2.100615
666.8769, 1.844206
667.3590, 1.748280
667.8411, 1.992775
668.3232, 1.937748
668.8054, 1.423965
669.2875, 0.7587700
669.7696, 0.4462680
670.2517, 0.4650080
670.7338, 0.5343170
671.2159, 0.6247040
671.6981, 0.7008930
672.1802, 0.6677060
672.6623, 0.5492500
673.1444, 0.4024430
673.6265, 0.1526170
674.1086, 4.8999999E-02
674.5908, 4.6255000E-02
675.0729, 0.1380790
675.5550, 0.3097190
676.0371, 0.4941560
676.5192, 0.5601830
677.0013, 0.3887370
677.4835, 6.0873002E-02
677.9656, 0.2875540
678.4477, 0.2007050
678.9298, 3.7448999E-02
679.4119, 2.4693999E-02
679.8940, 1.8383000E-02
680.3762, 1.7090000E-03
680.8583, 7.9847001E-02
681.3404, 0.2219050
681.8225, 0.5345970
682.3046, 0.8880900
682.7867, 0.9655020
683.2689, 0.6202430
683.7510, 0.2665540
684.2331, 0.2299560
684.7152, 0.3603360
685.1973, 0.4683340
685.6794, 0.4079320
686.1616, 0.4388410
686.6437, 0.7824940
687.1258, 1.202599
687.6079, 1.219524
688.0900, 0.6157880
688.5721, 0.1822190
689.0543, 0.1486930
689.5364, 0.3815350
690.0185, 0.5128610
690.5006, 0.5429650
690.9827, 0.5128800
691.4648, 0.3541950
691.9470, 0.1934450
692.4291, 0.2490980
692.9112, 0.4929830
693.3933, 0.7675900
693.8754, 1.052320
694.3575, 1.289413
694.8397, 1.429651
695.3218, 1.463921
695.8039, 1.489897
696.2860, 1.575201
696.7681, 1.605209
697.2502, 1.514366
697.7324, 1.281233
698.2145, 1.005505
698.6966, 0.6436160
699.1787, 0.3623390
699.6608, 0.4441930
700.1429, 0.2618038
700.6251, 0.7667580
701.1072, 0.2402820
701.5893, 0.2111570
702.0714, 0.1895240
702.5535, 0.9785790
703.0356, 1.467745
703.5178, 1.316641
703.9999, 1.082449
704.4820, 0.9166950
704.9641, 0.8146060
705.4462, 0.7725390
705.9283, 0.8636470
706.4105, 0.8842300
706.8926, 0.7507670
707.3747, 0.5662650
707.8568, 0.6340410
708.3389, 0.9839170
708.8210, 1.177996
709.3032, 0.9835410
709.7853, 0.6230320
710.2674, 0.5561960
710.7495, 0.7315940
711.2316, 0.9345150
711.7137, 1.120867
712.1959, 1.229437
712.6780, 1.143005
713.1601, 0.8981840
713.6422, 0.7644040
714.1243, 0.9785710
714.6064, 1.142342
715.0886, 1.040056
715.5707, 0.6577300
716.0528, 0.5245170
716.5349, 0.7080120
717.0170, 0.9652900
717.4991, 1.167486
717.9813, 1.312815
718.4634, 1.413675
718.9455, 1.469791
719.4276, 1.454266
719.9097, 1.283648
720.3918, 1.055172
720.8740, 0.8889330
721.3561, 0.7975640
721.8382, 0.7919460
722.3203, 0.8784830
722.8024, 1.052582
723.2845, 1.326338
723.7667, 1.923971
724.2488, 2.199352
724.7309, 1.979521
725.2130, 1.624084
725.6951, 1.593555
726.1772, 1.914604
726.6594, 2.096500
727.1415, 2.038157
727.6236, 1.864218
728.1057, 1.711092
728.5878, 1.588985
729.0699, 1.518839
729.5521, 1.518904
730.0342, 1.548908
730.5163, 1.589951
730.9984, 1.637842
731.4805, 1.682632
731.9626, 1.794233
732.4448, 1.816786
732.9269, 1.621672
733.4090, 1.349989
733.8911, 1.468620
734.3732, 2.111771
734.8553, 2.536398
735.3375, 2.380381
735.8196, 1.936384
736.3017, 1.971523
736.7838, 2.440287
737.2659, 3.029453
737.7480, 3.769632
738.2302, 4.397770
738.7123, 4.507498
739.1944, 4.232460
739.6765, 4.230934
740.1586, 4.993687
740.6407, 5.833389
741.1229, 6.368763
741.6050, 6.620581
742.0871, 7.212717
742.5692, 8.261642
743.0513, 9.401560
743.5334, 10.47530
744.0156, 11.48558
744.4977, 12.31300
744.9798, 12.95917
745.4619, 13.77721
745.9440, 15.04422
746.4261, 16.61775
746.9083, 18.34854
747.3904, 20.22839
747.8725, 22.32082
748.3546, 24.57672
748.8367, 27.08591
749.3188, 29.94462
749.8010, 33.14859
750.2831, 36.48808
750.7652, 39.75003
751.2473, 43.48745
751.7294, 48.39444
752.2115, 54.41236
752.6937, 60.30098
753.1758, 66.06521
753.6579, 71.31308
754.1400, 76.05652
754.6221, 79.89919
755.1042, 82.19410
755.5864, 82.69952
756.0685, 82.03472
756.5506, 80.08437
757.0327, 77.33178
757.5148, 74.31580
757.9969, 71.07960
758.4791, 67.53833
758.9612, 63.61882
759.4433, 59.42749
759.9254, 55.15062
760.4075, 50.73677
760.8896, 46.43272
761.3718, 42.22828
761.8539, 38.28872
762.3360, 34.83499
762.8181, 31.80920
763.3002, 29.12413
763.7823, 26.83961
764.2645, 24.67375
764.7466, 22.32176
765.2287, 20.05663
765.7108, 18.19682
766.1929, 17.09371
766.6750, 15.99757
767.1572, 14.80547
767.6393, 13.62338
768.1214, 12.64685
768.6035, 11.88535
769.0856, 11.19530
769.5677, 10.54845
770.0499, 9.931084
770.5320, 9.268097
771.0141, 8.616512
771.4962, 8.116863
771.9783, 7.984844
772.4604, 7.870060
772.9426, 7.594452
773.4247, 7.202211
773.9068, 6.793789
774.3889, 6.313736
774.8710, 5.910328
775.3531, 5.578098
775.8353, 5.353197
776.3174, 5.441559
776.7995, 5.867874
777.2816, 6.050327
777.7637, 5.664505
778.2458, 5.045908
778.7280, 4.711746
779.2101, 4.604006
779.6922, 4.511663
780.1743, 4.359924
780.6564, 4.168486
781.1385, 3.886774
781.6207, 3.557222
782.1028, 3.371576
782.5849, 3.374092
783.0670, 3.472860
783.5491, 3.746347
784.0313, 4.072508
784.5134, 3.857746
784.9955, 3.089640
785.4776, 2.465193
785.9597, 2.394876
786.4418, 2.596941
786.9240, 2.700991
787.4061, 2.704201
787.8882, 2.591316
788.3703, 2.085457
788.8524, 1.721624
789.3345, 1.881489
789.8167, 2.491165
790.2988, 2.882944
790.7809, 2.998596
791.2630, 2.985149
791.7451, 2.869221
792.2272, 2.669455
792.7094, 2.433338
793.1915, 2.165806
793.6736, 1.940695
794.1557, 1.886364
794.6378, 1.847397
795.1199, 1.516548
795.6021, 0.9904880
796.0842, 0.6922510
796.5663, 1.095989
797.0484, 1.492088
797.5305, 1.519646
798.0126, 1.222464
798.4948, 0.9964240
798.9769, 0.8188820
799.4590, 0.7815380
799.9411, 0.9808120
800.4232, 1.336664
800.9053, 1.518566
801.3875, 1.540518
801.8696, 1.539639
802.3517, 1.581692
802.8338, 1.653484
803.3159, 1.775789
803.7980, 1.929539
804.2802, 2.007528
804.7623, 2.003674
805.2444, 1.877802
805.7265, 1.514145
806.2086, 0.9739650
806.6907, 0.8814620
807.1729, 1.371593
807.6550, 1.721313
808.1371, 1.474661
808.6192, 0.8883720
809.1013, 0.6846180
809.5834, 0.7991960
810.0656, 0.8653740
810.5477, 0.5806270
811.0298, 0.2456380
811.5119, 5.1683001E-02
811.9940, 4.4979998E-03
812.4761, 9.9660000E-03
812.9583, 6.5916002E-02
813.4404, 0.1393070
813.9225, 0.2188360
814.4046, 0.2789520
814.8867, 8.7894000E-02
815.3688, 0.3723030
815.8510, 0.6881690
816.3331, 0.5885700
816.8152, 0.2437040
817.2973, 0.1832890
817.7794, 0.6340500
818.2615, 0.8673730
818.7437, 0.5463850
819.2258, 0.1871380
819.7079, 1.8188000E-02
820.1900, 3.0832000E-02
820.6721, 8.9873999E-02
821.1542, 0.2804910
821.6364, 0.3093570
822.1185, 3.9482001E-02
822.6006, 0.5598510
823.0827, 0.4493710
823.5648, 0.2043780
824.0469, 0.6924440
824.5291, 0.4823340
825.0112, 6.4122997E-02
825.4933, 0.1198270
825.9754, 0.1227570
826.4575, 0.1209410
826.9396, 0.1801780
827.4218, 0.2333700
827.9039, 0.3246750
828.3860, 0.3903770
828.8681, 0.1291080
829.3502, 0.5598470
829.8323, 0.9721890
830.3145, 0.7595350
830.7966, 0.2698190
831.2787, 0.1974110
831.7608, 0.4185310
832.2429, 0.5522480
832.7250, 0.2449670
833.2072, 1.7393000E-02
833.6893, 0.1707690
834.1714, 0.5976620
834.6535, 0.6624490
835.1356, 6.3672997E-02
835.6177, 0.4014800
836.0999, 1.4317000E-02
836.5820, 0.7846220
837.0641, 0.9073120
837.5462, 0.4357340
838.0283, 0.2759300
838.5104, 0.8677060
838.9926, 1.608519
839.4747, 1.897715
839.9568, 1.849510
840.4389, 1.664270
840.9210, 1.213751
841.4031, 0.8689630
841.8853, 0.6848600
842.3674, 0.6662650
842.8495, 0.8961180
843.3316, 1.466860
843.8137, 1.806435
844.2958, 1.790865
844.7780, 1.598694
845.2601, 1.400503
845.7422, 1.240267
846.2243, 1.235226
846.7064, 1.469667
847.1885, 1.732092
847.6707, 1.919079
848.1528, 2.053680
848.6349, 2.169935
849.1170, 2.333565
849.5991, 2.341938
850.0812, 2.084063
850.5634, 1.842472
851.0455, 2.037724
851.5276, 2.590263
852.0097, 2.833950
852.4918, 2.647657
852.9739, 2.450632
853.4561, 2.691145
853.9382, 3.048605
854.4203, 3.193872
854.9024, 3.049545
855.3845, 2.769186
855.8666, 2.115368
856.3488, 1.590521
856.8309, 1.608932
857.3130, 2.263908
857.7951, 2.483835
858.2772, 2.209900
858.7593, 1.971582
859.2415, 2.398478
859.7236, 3.047749
860.2057, 3.133266
860.6878, 2.599550
861.1699, 2.148857
861.6520, 2.216661
862.1342, 2.393187
862.6163, 2.403732
863.0984, 2.235395
863.5805, 2.243120
864.0626, 2.497822
864.5447, 2.705315
865.0269, 2.658983
865.5090, 2.440306
865.9911, 2.306454
866.4732, 2.259787
866.9553, 2.309177
867.4374, 2.649773
867.9196, 2.926172
868.4017, 2.796013
868.8838, 2.323051
869.3659, 2.036726
869.8480, 2.106199
870.3301, 2.152300
870.8123, 2.056139
871.2944, 1.861828
871.7765, 1.701721
872.2586, 1.579241
872.7407, 1.514450
873.2228, 1.531199
873.7050, 1.577471
874.1871, 1.651571
874.6692, 1.731216
875.1513, 1.749584
875.6334, 1.513203
876.1155, 1.437702
876.5977, 1.720415
877.0798, 2.117916
877.5619, 2.137161
878.0440, 1.743624
878.5261, 1.473076
879.0082, 1.443838
879.4904, 1.544228
879.9725, 1.748379
880.4546, 1.936979
880.9367, 1.906662
881.4188, 1.472498
881.9009, 1.083342
882.3831, 0.9378070
882.8652, 0.8899730
883.3473, 0.7575950
883.8294, 0.4532510
884.3115, 0.4950410
884.7936, 0.9868490
885.2758, 1.457056
885.7579, 1.276855
886.2400, 0.7431090
886.7221, 0.6025180
887.2042, 0.9651570
887.6863, 1.237858
888.1685, 0.9514010
888.6506, 0.5519330
889.1327, 0.3706250
889.6148, 0.4578590
890.0969, 0.4886130
890.5790, 0.4059850
891.0612, 0.3463840
891.5433, 0.4421770
892.0254, 0.6381890
892.5075, 0.7262310
892.9896, 0.7068440
893.4717, 0.5909940
893.9539, 0.1847840
894.4360, 0.1108300
894.9181, 0.1046640
895.4002, 0.7330780
895.8823, 1.086880
896.3644, 1.058640
896.8466, 0.8864860
897.3287, 0.5585000
897.8108, 0.1930310
898.2929, 0.1592040
898.7750, 0.4048630
899.2571, 0.5734630
899.7393, 0.4537050
900.2214, 0.3066540
900.7035, 0.3535160
901.1856, 0.5327430
901.6677, 0.7364520
902.1498, 1.057493
902.6320, 1.225843
903.1141, 1.173719
903.5962, 1.006046
904.0783, 0.8109780
904.5604, 0.5980320
905.0425, 0.5569930
905.5247, 0.7407610
906.0068, 0.9567580
906.4889, 1.014782
906.9710, 1.028271
907.4531, 1.099220
907.9352, 1.313211
908.4174, 1.453108
908.8995, 1.516460
909.3816, 1.424549
909.8637, 1.024714
910.3458, 0.3205910
910.8279, 6.7731999E-02
911.3101, 0.2773650
911.7922, 0.5972460
912.2743, 0.8626120
912.7564, 1.027805
913.2385, 0.9483870
913.7206, 0.6734120
914.2028, 0.5614680
914.6849, 1.046175
915.1670, 1.340750
915.6491, 1.092413
916.1312, 0.5055640
916.6133, 0.4355470
917.0955, 0.9089570
917.5776, 1.353306
918.0597, 1.575163
918.5418, 1.643608
919.0239, 1.639608
919.5060, 1.572573
919.9882, 1.461298
920.4703, 1.201460
920.9524, 1.042564
921.4345, 1.033133
921.9166, 1.131592
922.3987, 1.320824
922.8809, 1.611408
923.3630, 1.824648
923.8451, 1.936882
924.3272, 1.997686
924.8093, 2.051891
925.2914, 2.089634
925.7736, 2.075737
926.2557, 1.986113
926.7378, 1.974844
927.2199, 2.252232
927.7020, 2.455452
928.1841, 2.316040
928.6663, 1.836123
929.1484, 1.871412
929.6305, 2.448870
930.1126, 2.953436
930.5947, 2.867590
931.0768, 2.571465
931.5590, 2.569710
932.0411, 2.798727
932.5232, 2.961342
933.0053, 3.020540
933.4874, 2.912952
933.9695, 2.543947
934.4517, 2.047949
934.9338, 1.766443
935.4159, 1.706169
935.8980, 1.627060
936.3801, 1.467482
936.8622, 1.263239
937.3444, 0.9936200
937.8265, 0.7320100
938.3086, 0.5821670
938.7907, 0.5691200
939.2728, 0.6901700
939.7549, 1.124516
940.2371, 1.507111
940.7192, 1.467405
941.2013, 0.9852030
941.6834, 0.7960360
942.1655, 0.9338930
942.6476, 1.157171
943.1298, 1.372541
943.6119, 1.493504
944.0940, 1.385769
944.5761, 1.051487
945.0582, 0.7413290
945.5403, 0.5399190
946.0225, 0.3316880
946.5046, 2.7355000E-02
946.9867, 0.2985740
947.4688, 0.2697890
947.9509, 8.7833002E-02
948.4330, 0.3746800
948.9152, 0.3462810
949.3973, 0.2798080
949.8794, 0.5224840
950.3615, 0.8990230
950.8436, 1.099154
951.3257, 0.8507400
951.8079, 0.6990180
952.2900, 0.7023280
952.7721, 0.7663460
953.2542, 0.7420850
953.7363, 0.6383900
954.2184, 0.5285490
954.7006, 0.4207020
955.1827, 0.3061100
955.6648, 0.1214690
956.1469, 3.5631001E-02
956.6290, 4.1443001E-02
957.1111, 0.1428410
957.5933, 0.2031610
958.0754, 0.1066970
958.5575, 7.2346002E-02
959.0396, 0.3379820
959.5217, 0.6440350
960.0038, 0.8595070
960.4860, 0.9780030
960.9681, 0.9653090
961.4502, 0.6544950
961.9323, 0.3585410
962.4144, 0.3771210
962.8965, 0.5255990
963.3787, 0.3494630
963.8608, 0.4610920
964.3429, 0.7886330
964.8250, 0.4018630
965.3071, 0.2605650
965.7892, 0.6968170
966.2714, 0.9191460
966.7535, 0.8935660
967.2356, 0.5702590
967.7177, 0.3485320
968.1998, 0.6145950
968.6819, 0.9582460
969.1641, 1.061207
969.6462, 0.9025940
970.1283, 0.7412340
970.6104, 0.5800500
971.0925, 0.4145680
971.5746, 0.1704650
972.0568, 4.0550001E-02
972.5389, 8.5813999E-02
973.0210, 0.4332290
973.5031, 0.5916840
973.9852, 0.1344280
974.4673, 0.2117820
974.9495, 6.2889002E-02
975.4316, 0.2027570
975.9137, 0.1924170
976.3958, 1.301538
976.8779, 1.994041
977.3600, 2.033760
977.8422, 1.797087
978.3243, 1.525932
978.8064, 1.302744
979.2885, 1.260937
979.7706, 1.464527
980.2527, 1.653036
980.7349, 1.819069
981.2170, 1.911076
981.6991, 1.867327
982.1812, 1.714159
982.6633, 1.575161
983.1454, 1.472017
983.6276, 1.650522
984.1097, 2.490953
984.5918, 3.454710
985.0739, 4.105032
985.5560, 4.552780
986.0381, 5.097975
986.5203, 5.802729
987.0024, 6.537926
987.4845, 7.321177
987.9666, 8.063988
988.4487, 8.531530
988.9308, 8.855495
989.4130, 9.417692
989.8951, 10.27892
990.3772, 11.40982
990.8593, 13.04083
991.3414, 14.73863
991.8235, 16.09363
992.3057, 17.07589
992.7878, 18.49354
993.2699, 20.32623
993.7520, 22.77332
994.2341, 26.10215
994.7162, 30.00532
995.1984, 33.69254
995.6805, 37.48593
996.1626, 42.16166
996.6447, 48.02655
997.1268, 54.93915
997.6089, 63.29390
998.0911, 72.34730
998.5732, 81.25353
999.0553, 90.03698
999.5374, 98.38416
1000.020, 106.4383
1000.502, 111.2196
1000.984, 109.1924
1001.466, 102.9366
1001.948, 94.22007
1002.430, 83.11234
1002.912, 72.21873
1003.394, 61.46849
1003.876, 51.57048
1004.359, 42.68720
1004.841, 34.91687
1005.323, 29.14880
1005.805, 25.08151
1006.287, 21.62249
1006.769, 18.22846
1007.251, 15.28671
1007.733, 13.17388
1008.216, 11.60843
1008.698, 10.19012
1009.180, 8.863922
1009.662, 7.866022
1010.144, 7.255941
1010.626, 6.763199
1011.108, 6.086624
1011.590, 5.382553
1012.072, 4.889462
1012.555, 4.616589
1013.037, 4.464167
1013.519, 4.656221
1014.001, 4.636295
1014.483, 4.138796
1014.965, 3.356867
1015.447, 2.884029
1015.929, 2.695780
1016.411, 2.667971
1016.894, 2.837933
1017.376, 2.953356
1017.858, 2.672878
1018.340, 2.279406
1018.822, 2.147556
1019.304, 2.506281
1019.786, 2.717533
1020.268, 2.726740
1020.751, 2.654518
1021.233, 2.593809
1021.715, 2.578604
1022.197, 2.603676
1022.679, 2.664444
1023.161, 2.702717
1023.643, 2.759579
1024.125, 2.743212
1024.607, 2.628933
1025.090, 2.447426
1025.572, 2.162285
1026.054, 1.725718
1026.536, 1.453997
1027.018, 1.452597
1027.500, 1.502136
1027.982, 1.353903
1028.464, 1.112450
1028.947, 0.8433150
1029.429, 0.5009160
1029.911, 0.5417980
1030.393, 1.268471
1030.875, 1.782270
1031.357, 1.550049
1031.839, 0.8384150
1032.321, 0.3530880
1032.803, 8.2190998E-02
1033.286, 2.3706000E-02
1033.768, 0.1236210
1034.250, 0.3357790
1034.732, 0.5050430
1035.214, 0.7123240
1035.696, 1.117252
1036.178, 1.817844
1036.660, 2.142832
1037.143, 2.005781
1037.625, 1.782335
1038.107, 1.666281
1038.589, 1.760229
1039.071, 2.314875
1039.553, 3.309105
1040.035, 4.106890
1040.517, 4.417383
1041.000, 4.757206
1041.482, 5.246496
1041.964, 5.860912
1042.446, 6.626345
1042.928, 7.473103
1043.410, 8.050308
1043.892, 8.151249
1044.374, 8.278954
1044.856, 8.846151
1045.339, 9.491890
1045.821, 9.842720
1046.303, 9.806847
1046.785, 10.10618
1047.267, 10.73889
1047.749, 11.70036
1048.231, 13.29059
1048.713, 14.97513
1049.195, 15.98855
1049.677, 16.51740
1050.160, 17.08182
1050.642, 17.83056
1051.124, 18.60843
1051.606, 19.31932
1052.088, 20.17318
1052.570, 21.54613
1053.052, 23.31054
1053.534, 24.83425
1054.017, 26.03130
1054.499, 27.41934
1054.981, 29.44504
1055.463, 31.66021
1055.945, 33.79443
1056.427, 35.86058
1056.909, 37.82829
1057.391, 39.64881
1057.874, 41.93069
1058.356, 44.87775
1058.838, 48.38597
1059.320, 52.29854
1059.802, 56.68809
1060.284, 61.78267
1060.766, 67.75743
1061.248, 74.20609
1061.730, 81.07691
1062.213, 88.44537
1062.695, 95.88595
1063.177, 103.9141
1063.659, 114.4793
1064.141, 127.4463
1064.623, 142.0067
1065.105, 156.6927
1065.587, 174.1320
1066.070, 196.0825
1066.552, 221.3313
1067.034, 248.1976
1067.516, 276.5458
1067.998, 306.7704
1068.480, 338.4883
1068.962, 373.5941
1069.444, 413.2997
1069.927, 457.4045
1070.409, 504.9387
1070.891, 555.6838
1071.373, 617.6861
1071.855, 690.0873
1072.337, 775.6730
1072.819, 874.1883
1073.301, 989.6474
1073.783, 1134.635
1074.266, 1303.115
1074.748, 1480.324
1075.230, 1651.209
1075.712, 1862.212
1076.194, 2149.084
1076.676, 2457.564
1077.158, 2796.791
1077.640, 3146.372
1078.122, 3313.105
1078.604, 3302.478
1079.087, 3161.440
1079.569, 2844.992
1080.051, 2482.100
1080.533, 2112.205
1081.015, 1764.657
1081.497, 1480.124
1081.979, 1271.878
1082.461, 1084.006
1082.944, 912.7473
1083.426, 763.4789
1083.908, 647.2813
1084.390, 554.8228
1084.872, 477.5641
1085.354, 414.0473
1085.836, 361.1340
1086.318, 318.8072
1086.801, 282.9815
1087.283, 253.3722
1087.765, 228.6733
1088.247, 207.0790
1088.729, 188.3146
1089.211, 172.2343
1089.693, 158.9714
1090.175, 146.9780
1090.657, 135.6649
1091.140, 125.4012
1091.622, 116.4462
1092.104, 108.7349
1092.586, 101.8496
1093.068, 95.74640
1093.550, 89.90843
1094.032, 83.37010
1094.514, 77.92169
1094.997, 75.65512
1095.479, 74.92742
1095.961, 73.39188
1096.443, 70.44837
1096.925, 68.36519
1097.407, 67.11193
1097.889, 66.87206
1098.371, 68.41628
1098.854, 70.62354
1099.336, 72.51532
1099.818, 73.88940
1100.300, 74.06491
1100.782, 72.95585
1101.264, 70.39544
1101.746, 66.15432
1102.228, 60.95946
1102.710, 55.40710
1103.193, 49.77505
1103.675, 44.50574
1104.157, 39.68034
1104.639, 35.45521
1105.121, 32.01422
1105.603, 29.04378
1106.085, 26.40585
1106.567, 24.08559
1107.049, 22.14911
1107.531, 20.53900
1108.014, 18.99302
1108.496, 17.37459
1108.978, 15.90522
1109.460, 14.72426
1109.942, 13.77762
1110.424, 13.11150
1110.906, 12.73706
1111.388, 11.91382
1111.871, 10.59386
1112.353, 9.528025
1112.835, 9.235056
1113.317, 9.197849
1113.799, 8.923058
1114.281, 8.501637
1114.763, 8.086205
1115.245, 7.906441
1115.728, 7.194712
1116.210, 5.711578
1116.692, 4.497250
1117.174, 4.782846
1117.656, 5.758892
1118.138, 5.940144
1118.620, 5.455469
1119.102, 4.995312
1119.584, 4.904928
1120.067, 4.683538
1120.549, 4.209009
1121.031, 3.649261
1121.513, 3.234613
1121.995, 2.923141
1122.477, 2.546165
1122.959, 2.085934
1123.441, 1.746960
1123.924, 1.677105
1124.406, 1.729595
1124.888, 1.922501
1125.370, 2.134459
1125.852, 1.955732
1126.334, 1.428818
1126.816, 1.040230
1127.298, 0.9147550
1127.781, 0.8958850
1128.263, 0.9585170
1128.745, 1.007675
1129.227, 0.9162310
1129.709, 0.7001720
1130.191, 0.6971660
1130.673, 0.9207820
1131.155, 1.131039
1131.637, 1.216145
1132.120, 1.280323
1132.602, 1.543430
1133.084, 1.801352
1133.566, 1.715147
1134.048, 1.063700
1134.530, 0.7625850
1135.012, 0.8745170
1135.494, 1.084833
1135.976, 1.265852
1136.458, 1.363083
1136.941, 1.268944
1137.423, 1.023544
1137.905, 0.7250820
1138.387, 0.1865620
1138.869, 5.3181000E-02
1139.351, 0.1072540
1139.833, 0.4102360
1140.315, 0.6773190
1140.798, 0.8722570
1141.280, 0.8841500
1141.762, 0.7283230
1142.244, 0.5297200
1142.726, 0.2344680
1143.208, 4.3855999E-02
1143.690, 2.1303000E-02
1144.172, 8.9211002E-02
1144.655, 0.1637740
1145.137, 0.2270180
1145.619, 0.2138880
1146.101, 0.1232260
1146.583, 7.0695996E-02
1147.065, 0.6080760
1147.547, 0.9745370
1148.029, 0.8692340
1148.511, 0.4705870
1148.994, 0.2275090
1149.476, 0.1438870
1149.958, 0.3299710
1150.440, 0.8867300
1150.922, 1.346449
1151.404, 1.308752
1151.886, 1.085466
1152.368, 0.8708170
1152.851, 0.6803250
1153.333, 0.6261730
1153.815, 0.7092970
1154.297, 0.7892420
1154.779, 0.8190160
1155.261, 0.8143410
1155.743, 0.7436030
1156.225, 0.6740210
1156.708, 0.7208880
1157.190, 0.9351200
1157.672, 0.8596100
1158.154, 0.4573990
1158.636, 5.3148001E-02
1159.118, 0.1982040
1159.600, 0.3074870
1160.082, 0.2310030
1160.564, 6.0777999E-02
1161.047, 4.9819998E-02
1161.529, 0.1394900
1162.011, 1.2211000E-02
1162.493, 0.4773100
1162.975, 0.8931270
1163.457, 0.9419800
1163.939, 0.8007350
1164.421, 0.6585880
1164.903, 0.5357090
1165.385, 0.4829240
1165.868, 0.5664880
1166.350, 0.5933240
1166.832, 0.5131580
1167.314, 0.4838730
1167.796, 0.7641370
1168.278, 1.161582
1168.760, 1.300271
1169.242, 1.213827
1169.725, 1.234170
1170.207, 1.530800
1170.689, 1.865889
1171.171, 2.254538
1171.653, 2.567454
1172.135, 2.566062
1172.617, 2.365916
1173.099, 2.199680
1173.582, 2.096188
1174.064, 2.062210
1174.546, 2.288958
1175.028, 2.314251
1175.510, 1.925540
1175.992, 1.388803
1176.474, 1.281261
1176.956, 1.470538
1177.438, 1.556469
1177.921, 1.441895
1178.403, 1.442288
1178.885, 1.898084
1179.367, 2.241971
1179.849, 2.230226
1180.331, 1.958615
1180.813, 1.640172
1181.295, 1.322804
1181.778, 1.202211
1182.260, 1.378579
1182.742, 1.581450
1183.224, 1.747096
1183.706, 1.841687
1184.188, 1.839162
1184.670, 1.749861
1185.152, 1.570751
1185.635, 1.347542
1186.117, 1.326495
1186.599, 1.724295
1187.081, 2.079150
1187.563, 2.171928
1188.045, 2.117193
1188.527, 1.968611
1189.009, 1.740383
1189.491, 1.554758
1189.974, 1.429350
1190.456, 1.500944
1190.938, 2.089112
1191.420, 2.548972
1191.902, 2.466340
1192.384, 2.164433
1192.866, 1.925799
1193.348, 1.748165
1193.830, 1.775519
1194.313, 1.990559
1194.795, 2.189103
1195.277, 2.228819
1195.759, 2.241698
1196.241, 2.285545
1196.723, 2.350280
1197.205, 2.443852
1197.687, 2.567471
1198.169, 2.581424
1198.652, 2.485520
1199.134, 2.440133
1199.616, 2.652720
1200.098, 2.843919
1200.580, 2.773555
1201.062, 2.605872
1201.544, 2.688466
1202.026, 3.040028
1202.509, 2.872509
1202.991, 2.111743
1203.473, 1.529539
1203.955, 1.945901
1204.437, 2.461081
1204.919, 2.388936
1205.401, 1.983315
1205.883, 1.838275
1206.365, 1.977234
1206.848, 2.037667
1207.330, 1.953755
1207.812, 1.948388
1208.294, 2.254576
1208.776, 2.616831
1209.258, 3.016335
1209.740, 3.347445
1210.222, 3.174130
1210.705, 2.484572
1211.187, 1.989471
1211.669, 1.819004
1212.151, 1.727486
1212.633, 1.479239
1213.115, 1.282585
1213.597, 1.410024
1214.079, 1.722756
1214.562, 1.651073
1215.044, 1.193152
1215.526, 0.7832350
1216.008, 0.5031480
1216.490, 0.4828740
1216.972, 1.147350
1217.454, 1.793331
1217.936, 1.749308
1218.418, 1.193150
1218.901, 1.113869
1219.383, 1.486162
1219.865, 1.734193
1220.347, 1.681501
1220.829, 1.549829
1221.311, 1.507806
1221.793, 1.441081
1222.275, 1.201520
1222.757, 0.8430110
1223.240, 0.8607340
1223.722, 1.216911
1224.204, 1.317183
1224.686, 0.8434340
1225.168, 0.4145090
1225.650, 0.5036340
1226.132, 0.7726900
1226.614, 0.9840370
1227.096, 1.129422
1227.579, 1.082147
1228.061, 0.8728690
1228.543, 0.7784170
1229.025, 0.9507340
1229.507, 1.151990
1229.989, 1.314566
1230.471, 1.379968
1230.953, 1.274378
1231.436, 1.026738
1231.918, 0.9247260
1232.400, 0.9513140
1232.882, 0.9931820
1233.364, 1.023649
1233.846, 1.021009
1234.328, 0.9845170
1234.810, 0.8989450
1235.292, 0.7151480
1235.775, 0.4603830
1236.257, 0.3443370
1236.739, 0.3621640
1237.221, 0.4834860
1237.703, 0.8371270
1238.185, 1.067680
1238.667, 0.9600340
1239.149, 0.7670960
1239.632, 0.6518990
1240.114, 0.6136650
1240.596, 0.5748270
1241.078, 0.5569690
1241.560, 0.6576040
1242.042, 1.145304
1242.524, 1.413956
1243.006, 1.182236
1243.489, 0.8698370
1243.971, 0.8112460
1244.453, 0.9576310
1244.935, 1.135225
1245.417, 1.310735
1245.899, 1.378195
1246.381, 1.195544
1246.863, 1.077064
1247.345, 1.068405
1247.828, 1.074841
1248.310, 0.9923640
1248.792, 0.8915350
1249.274, 0.9915350
1249.756, 1.228091
1250.238, 1.376385
1250.720, 1.336691
1251.202, 1.210680
1251.684, 0.9713600
1252.167, 0.7396140
1252.649, 0.6138850
1253.131, 0.5526210
1253.613, 0.5220790
1254.095, 0.5148770
1254.577, 0.6147460
1255.059, 1.020848
1255.541, 1.148723
1256.023, 0.8870800
1256.506, 0.5975290
1256.988, 0.6150250
1257.470, 0.7840760
1257.952, 0.9422200
1258.434, 1.072807
1258.916, 1.102262
1259.398, 1.023329
1259.880, 0.8501420
1260.363, 0.5325770
1260.845, 0.2245000
1261.327, 5.8240001E-03
1261.809, 0.1080220
1262.291, 4.3823998E-02
1262.773, 0.3498630
1263.255, 0.5806310
1263.737, 0.7165070
1264.219, 0.6851740
1264.702, 0.4738410
1265.184, 0.3260430
1265.666, 0.5957630
1266.148, 0.8594680
1266.630, 0.6472010
1267.112, 0.8050054
1267.594, 0.8341227
1268.076, 0.6649780
1268.559, 0.8121510
1269.041, 0.6020410
1269.523, 0.3605150
1270.005, 0.3839330
1270.487, 0.4197170
1270.969, 0.2234400
1271.451, 8.9090001E-03
1271.933, 3.4968998E-02
1272.416, 0.3368850
1272.898, 0.5146410
1273.380, 0.5533950
1273.862, 0.5754670
1274.344, 0.6819370
1274.826, 0.7386830
1275.308, 0.6948970
1275.790, 0.5898990
1276.272, 0.4274500
1276.755, 0.2467570
1277.237, 0.2057920
1277.719, 0.2986110
1278.201, 0.4307110
1278.683, 0.6293130
1279.165, 0.7634520
1279.647, 0.7852490
1280.129, 0.7855070
1280.611, 0.9340850
1281.094, 1.105791
1281.576, 0.9441490
1282.058, 0.4767050
1282.540, 0.2180750
1283.022, 0.3731780
1283.504, 0.4905320
1283.986, 0.5259350
1284.468, 0.5215730
1284.950, 0.4935430
1285.433, 0.4617340
1285.915, 0.3922680
1286.397, 0.3085120
1286.879, 0.2787420
1287.361, 0.3451540
1287.843, 0.4510350
1288.325, 0.5928770
1288.807, 0.6455860
1289.290, 0.3626820
1289.772, 6.7487001E-02
1290.254, 0.1343000
1290.736, -4.6654325E-02
1291.218, 0.3793520
1291.700, 5.2602001E-02
1292.182, 8.0199003E-02
1292.664, 0.5046700
1293.146, 0.8692140
1293.629, 0.8662270
1294.111, 0.6970270
1294.593, 0.2822430
1295.075, 9.9550001E-02
1295.557, 1.3110000E-03
1296.039, 0.4891420
1296.521, 0.6414820
1297.003, 0.4493430
1297.486, 0.2723950
1297.968, 0.3314740
1298.450, 0.3939700
1298.932, 0.2574800
1299.414, 0.2201620
1299.896, 0.2133520
1300.378, 0.2037330
1300.860, 0.1425810
1301.343, 3.2963999E-02
1301.825, 0.0000000E+00
##END=



