##NAMES=Scottyite
##RRUFFID=R120077
##IDEAL CHEMISTRY=BaCu_2_Si_2_O_7_
##LOCALITY=Wessels mine, Kalahari Manganese Fields, Northern Cape Province, South Africa
##OWNER=RRUFF
##SOURCE=William W. Pinch and Marcus Origlieri
##DESCRIPTION=Blue massive, associated with R120019 wesselsite and R120057 lavinskyite
##STATUS=The identification of this mineral is confirmed by single-crystal X-ray diffraction and chemical analysis.
##URL=rruff.info/R120077
##MEASURED CHEMISTRY=Ba_1.00_Sr_0.01_Na_0.01_Cu_2.04_Si_1.97_O_7_ ; (Scottyite is light grey material in image, associated with dark grey R120057 lavinskyite, and medium gray R120019 wesselsite
206.6823, 0.0000000E+00
207.1644, 2.8656000E-02
207.6465, 0.7715300
208.1287, 1.804871
208.6108, 3.068649
209.0929, 4.497574
209.5750, 6.021820
210.0571, 7.598373
210.5392, 9.232925
211.0214, 10.83669
211.5035, 12.36626
211.9856, 13.84314
212.4677, 15.54396
212.9498, 17.65112
213.4319, 19.48045
213.9140, 20.61194
214.3962, 20.89116
214.8783, 20.82918
215.3604, 20.40549
215.8425, 19.67674
216.3246, 18.85881
216.8067, 17.92795
217.2889, 16.99489
217.7710, 16.43025
218.2531, 15.80440
218.7352, 15.05119
219.2173, 14.44708
219.6994, 14.24844
220.1816, 14.53152
220.6637, 15.06714
221.1458, 15.69452
221.6279, 16.02867
222.1100, 16.73010
222.5921, 16.69925
223.0743, 15.30637
223.5564, 12.96046
224.0385, 10.89230
224.5206, 9.242935
225.0027, 7.720291
225.4848, 6.127731
225.9670, 4.394745
226.4491, 3.139893
226.9312, 2.192245
227.4133, 1.310608
227.8954, 0.5597380
228.3775, 9.5611997E-02
228.8597, 2.5924999E-02
229.3418, 3.4409001E-02
229.8239, 0.5428770
230.3060, 0.9685970
230.7881, 1.184235
231.2702, 1.196289
231.7524, 0.9892120
232.2345, 0.3831630
232.7166, 0.1959690
233.1987, 0.4803010
233.6808, 0.3228150
234.1629, 0.2181850
234.6451, 0.2843480
235.1272, 0.4354100
235.6093, 0.2290500
236.0914, 0.6916200
236.5735, 1.481583
237.0556, 1.600449
237.5378, 0.5723570
238.0199, 7.4584998E-02
238.5020, 0.1676480
238.9841, 0.1847690
239.4662, 0.5667720
239.9483, 1.099075
240.4305, 1.508026
240.9126, 1.628235
241.3947, 1.291290
241.8768, 1.051468
242.3589, 0.9794310
242.8410, 1.020111
243.3232, 0.9848630
243.8053, 0.8867950
244.2874, 0.6902310
244.7695, 0.3447110
245.2516, 0.3099820
245.7337, 0.7695010
246.2159, 1.002686
246.6980, 1.039047
247.1801, 0.9335170
247.6622, 0.5281370
248.1443, 0.2197880
248.6264, 0.2264860
249.1086, 0.7139130
249.5907, 1.142273
250.0728, 1.612183
250.5549, 1.985916
251.0370, 1.828949
251.5191, 0.7619020
252.0013, 0.2410890
252.4834, 0.7178960
252.9655, 0.3827060
253.4476, 0.2797700
253.9297, 0.5405430
254.4118, 0.9775540
254.8940, 1.128479
255.3761, 0.7405090
255.8582, 0.5108490
256.3403, 0.7456670
256.8224, 1.553833
257.3046, 2.471786
257.7867, 3.579834
258.2688, 4.730606
258.7509, 5.591049
259.2330, 5.976624
259.7151, 6.424637
260.1973, 7.248795
260.6794, 8.643158
261.1615, 9.401840
261.6436, 9.223389
262.1257, 8.667465
262.6078, 8.776825
263.0900, 9.951309
263.5721, 10.83597
264.0542, 10.85004
264.5363, 9.814957
265.0184, 9.128006
265.5005, 8.838684
265.9827, 8.820663
266.4648, 8.880569
266.9469, 8.971817
267.4290, 9.277435
267.9111, 9.907028
268.3932, 10.87881
268.8754, 11.78548
269.3575, 12.58527
269.8396, 13.37384
270.3217, 14.26982
270.8038, 15.29510
271.2859, 16.32123
271.7681, 17.35847
272.2502, 18.39124
272.7323, 19.21313
273.2144, 19.94049
273.6965, 20.18263
274.1786, 19.37338
274.6608, 17.32362
275.1429, 15.20721
275.6250, 13.29468
276.1071, 11.56378
276.5892, 9.658417
277.0714, 7.454590
277.5535, 5.512299
278.0356, 4.462921
278.5177, 4.383652
278.9998, 4.400803
279.4819, 4.371780
279.9641, 4.297379
280.4462, 4.131470
280.9283, 3.831299
281.4104, 3.623093
281.8925, 3.740631
282.3746, 4.189056
282.8568, 4.612595
283.3389, 4.955154
283.8210, 5.241394
284.3031, 5.530624
284.7852, 5.829071
285.2673, 6.133270
285.7495, 6.380341
286.2316, 6.570297
286.7137, 6.983429
287.1958, 7.707626
287.6779, 8.675751
288.1600, 9.687729
288.6422, 10.73302
289.1243, 11.78630
289.6064, 12.69118
290.0885, 13.51794
290.5706, 14.67232
291.0527, 16.24408
291.5349, 18.09177
292.0170, 19.92421
292.4991, 21.73013
292.9812, 23.74083
293.4633, 26.00867
293.9454, 28.59715
294.4276, 31.63239
294.9097, 35.11694
295.3918, 38.93713
295.8739, 43.01335
296.3560, 47.29556
296.8381, 51.71152
297.3203, 55.89233
297.8024, 60.15428
298.2845, 65.35326
298.7666, 71.59203
299.2487, 78.11624
299.7308, 84.58385
300.2130, 90.86877
300.6951, 96.51108
301.1772, 101.4538
301.6593, 105.5831
302.1414, 108.8882
302.6235, 111.3337
303.1057, 112.6650
303.5878, 112.3921
304.0699, 110.8708
304.5520, 108.6927
305.0341, 105.5824
305.5162, 102.3747
305.9984, 99.65375
306.4805, 97.46446
306.9626, 96.03221
307.4447, 95.94109
307.9268, 96.59845
308.4089, 97.22723
308.8911, 97.50513
309.3732, 98.02614
309.8553, 99.27487
310.3374, 101.0826
310.8195, 103.0195
311.3016, 105.2609
311.7838, 107.2779
312.2659, 108.7041
312.7480, 109.6174
313.2301, 109.5242
313.7122, 107.9349
314.1943, 105.1306
314.6765, 101.7299
315.1586, 97.76215
315.6407, 93.48967
316.1228, 88.99446
316.6049, 84.15085
317.0870, 79.47510
317.5692, 75.22144
318.0513, 71.31152
318.5334, 67.66000
319.0155, 64.45007
319.4976, 61.29620
319.9797, 58.00291
320.4619, 54.52203
320.9440, 51.19542
321.4261, 47.96936
321.9082, 45.07202
322.3903, 42.73978
322.8724, 41.37898
323.3546, 40.12254
323.8367, 38.69588
324.3188, 37.15291
324.8009, 35.86441
325.2830, 34.71901
325.7651, 33.96475
326.2473, 33.76761
326.7294, 35.13728
327.2115, 35.92670
327.6936, 35.60312
328.1757, 34.42389
328.6578, 33.65138
329.1400, 33.25163
329.6221, 33.30891
330.1042, 33.94122
330.5863, 36.17542
331.0684, 37.27061
331.5505, 36.67538
332.0327, 35.03554
332.5148, 33.78183
332.9969, 33.16881
333.4790, 32.58823
333.9611, 31.87764
334.4432, 31.09917
334.9254, 29.83826
335.4075, 27.75584
335.8896, 25.47955
336.3717, 23.96815
336.8538, 23.62260
337.3359, 23.06856
337.8180, 21.72794
338.3001, 19.63153
338.7823, 18.65918
339.2644, 19.25114
339.7465, 20.12505
340.2286, 19.92366
340.7107, 18.43733
341.1928, 17.14038
341.6750, 16.28731
342.1571, 15.85324
342.6392, 15.88443
343.1213, 16.45802
343.6034, 17.10188
344.0855, 17.43979
344.5677, 17.48602
345.0498, 17.64804
345.5319, 17.95087
346.0140, 18.42709
346.4961, 19.14334
346.9782, 20.09296
347.4604, 21.24402
347.9425, 22.68388
348.4246, 24.32671
348.9067, 25.76932
349.3888, 26.95648
349.8709, 28.11569
350.3531, 29.57420
350.8352, 31.25429
351.3173, 32.85997
351.7994, 33.96005
352.2815, 35.02757
352.7636, 36.99524
353.2458, 39.83604
353.7279, 42.79767
354.2100, 45.18161
354.6921, 47.24719
355.1742, 49.47711
355.6563, 52.43384
356.1385, 55.20219
356.6206, 57.10657
357.1027, 58.13785
357.5848, 58.22986
358.0669, 56.86917
358.5490, 54.80319
359.0312, 52.80191
359.5133, 51.20813
359.9954, 49.21887
360.4775, 46.24202
360.9596, 42.52063
361.4417, 38.62346
361.9239, 34.34563
362.4060, 30.25572
362.8881, 26.71895
363.3702, 23.85228
363.8523, 21.11113
364.3344, 18.22052
364.8166, 15.39606
365.2987, 12.86351
365.7808, 10.79774
366.2629, 8.974701
366.7450, 7.370270
367.2271, 5.980545
367.7093, 4.725815
368.1914, 3.347244
368.6735, 2.253632
369.1556, 1.714691
369.6377, 2.538696
370.1198, 2.918884
370.6020, 2.579834
371.0841, 1.716644
371.5662, 1.051804
372.0483, 0.8510280
372.5304, 0.5270840
373.0125, 0.2718050
373.4947, 1.971497
373.9768, 2.863861
374.4589, 2.635132
374.9410, 1.860916
375.4231, 1.471619
375.9052, 1.591278
376.3874, 1.730499
376.8695, 1.763199
377.3516, 1.685455
377.8337, 1.450195
378.3158, 0.9688870
378.7979, 0.5470430
379.2801, 0.6468050
379.7622, 1.309677
380.2443, 1.510300
380.7264, 0.9114230
381.2085, 0.1606900
381.6906, 0.8119350
382.1728, 1.030914
382.6549, 1.217056
383.1370, 1.530655
383.6191, 2.009247
384.1012, 2.831207
384.5833, 4.063370
385.0655, 5.491806
385.5476, 6.828781
386.0297, 8.119110
386.5118, 9.459122
386.9939, 10.92976
387.4760, 12.48041
387.9582, 14.11319
388.4403, 15.84497
388.9224, 17.43317
389.4045, 18.46350
389.8866, 19.27179
390.3687, 20.37405
390.8509, 22.40749
391.3330, 24.26637
391.8151, 25.10457
392.2972, 25.08217
392.7793, 24.87033
393.2614, 24.87354
393.7436, 24.76779
394.2257, 24.33484
394.7078, 23.54367
395.1899, 22.39827
395.6720, 20.71596
396.1541, 18.70819
396.6363, 16.71579
397.1184, 14.74341
397.6005, 12.86891
398.0826, 11.13907
398.5647, 9.570618
399.0468, 8.016205
399.5290, 6.146896
400.0111, 4.465134
400.4932, 3.371521
400.9753, 3.179443
401.4574, 3.174026
401.9395, 3.496048
402.4217, 4.002747
402.9038, 3.968872
403.3859, 3.096130
403.8680, 2.122208
404.3501, 1.355515
404.8322, 0.7728730
405.3144, 0.5481260
405.7965, 0.8273160
406.2786, 1.291916
406.7607, 1.406906
407.2428, 1.109070
407.7249, 0.8007510
408.2071, 0.6193850
408.6892, 0.5421600
409.1713, 0.3574370
409.6534, 1.4343000E-02
410.1355, 0.1412960
410.6176, 0.4146270
411.0998, 1.527466
411.5819, 2.238953
412.0640, 2.250504
412.5461, 1.969009
413.0282, 2.044266
413.5103, 2.432083
413.9925, 2.872040
414.4746, 3.336639
414.9567, 3.719818
415.4388, 3.771011
415.9209, 3.432739
416.4030, 3.122330
416.8852, 3.245956
417.3673, 3.622208
417.8494, 3.953888
418.3315, 4.138489
418.8136, 4.238724
419.2957, 4.175873
419.7779, 4.007233
420.2600, 4.089615
420.7421, 4.972198
421.2242, 5.938690
421.7063, 6.414886
422.1884, 6.014893
422.6706, 5.688980
423.1527, 5.829483
423.6348, 6.181442
424.1169, 6.265213
424.5990, 5.773834
425.0811, 5.230072
425.5633, 4.743958
426.0454, 4.297516
426.5275, 4.040543
427.0096, 4.242523
427.4917, 4.411026
427.9738, 4.062637
428.4560, 2.678833
428.9381, 1.886490
429.4202, 2.072372
429.9023, 2.932037
430.3844, 3.423035
430.8665, 3.422485
431.3487, 3.267838
431.8308, 3.265717
432.3129, 3.506577
432.7950, 3.441254
433.2771, 2.991974
433.7592, 2.472244
434.2414, 2.241379
434.7235, 2.321259
435.2056, 2.517136
435.6877, 2.745056
436.1698, 3.087616
436.6519, 3.765335
437.1341, 4.741531
437.6162, 5.716217
438.0983, 6.559479
438.5804, 7.325363
439.0625, 8.040756
439.5446, 8.640671
440.0268, 9.230911
440.5089, 9.751587
440.9910, 10.33374
441.4731, 11.23875
441.9552, 12.58470
442.4373, 14.27005
442.9195, 16.39264
443.4016, 18.94199
443.8837, 21.37517
444.3658, 23.24442
444.8479, 24.99490
445.3300, 26.92905
445.8122, 28.94977
446.2943, 31.48981
446.7764, 34.83493
447.2585, 38.78464
447.7406, 42.81918
448.2227, 46.83252
448.7049, 51.06808
449.1870, 55.68951
449.6691, 60.69933
450.1512, 65.74643
450.6333, 70.53119
451.1154, 75.61353
451.5976, 81.51505
452.0797, 88.23949
452.5618, 95.69025
453.0439, 103.9737
453.5260, 112.8120
454.0081, 121.9323
454.4903, 131.4007
454.9724, 141.3949
455.4545, 152.2600
455.9366, 163.8273
456.4187, 175.9272
456.9008, 188.6346
457.3830, 200.8299
457.8651, 212.1168
458.3472, 221.8892
458.8293, 227.6972
459.3114, 228.9995
459.7935, 225.6631
460.2757, 216.5249
460.7578, 202.2652
461.2399, 186.0239
461.7220, 167.9860
462.2041, 149.7810
462.6862, 133.0808
463.1684, 118.2156
463.6505, 104.9187
464.1326, 93.53070
464.6147, 83.67731
465.0968, 74.69528
465.5789, 66.54120
466.0611, 59.38782
466.5432, 53.32016
467.0253, 48.30092
467.5074, 43.88663
467.9895, 40.48178
468.4716, 37.33118
468.9538, 34.03322
469.4359, 30.28865
469.9180, 27.13132
470.4001, 24.62294
470.8822, 22.62463
471.3643, 20.95125
471.8465, 19.66975
472.3286, 18.52168
472.8107, 17.49979
473.2928, 16.56825
473.7749, 15.33537
474.2570, 13.71553
474.7392, 12.27013
475.2213, 11.55353
475.7034, 11.44963
476.1855, 11.20439
476.6676, 10.76849
477.1497, 10.08337
477.6319, 8.794189
478.1140, 7.137955
478.5961, 5.905045
479.0782, 5.737991
479.5603, 5.990402
480.0424, 5.940857
480.5246, 5.618637
481.0067, 5.268387
481.4888, 5.216370
481.9709, 5.108383
482.4530, 4.548477
482.9352, 3.195572
483.4173, 2.050430
483.8994, 1.621033
484.3815, 1.618469
484.8636, 1.606552
485.3457, 1.403885
485.8279, 1.263351
486.3100, 1.292282
486.7921, 1.493546
487.2742, 1.606339
487.7563, 1.502975
488.2384, 1.449661
488.7206, 1.687561
489.2027, 2.615646
489.6848, 2.666565
490.1669, 1.382050
490.6490, 0.3046880
491.1311, 0.8129580
491.6133, 3.7002999E-02
492.0954, 0.8540950
492.5775, 1.234009
493.0596, 1.247284
493.5417, 1.146027
494.0238, 0.9280400
494.5060, 0.6093140
494.9881, 5.1420000E-03
495.4702, 0.6838230
495.9523, 0.8918150
496.4344, 0.4704440
496.9165, 7.7193998E-02
497.3987, 0.3086700
497.8808, 0.3025510
498.3629, 0.2021790
498.8450, 7.8918003E-02
499.3271, 0.3094480
499.8092, 0.2522280
500.2914, 3.2349002E-02
500.7735, 0.1930540
501.2556, 0.1693420
501.7377, 0.4931490
502.2198, 0.3524780
502.7019, 0.6763150
503.1841, 1.199326
503.6662, 0.5201720
504.1483, 0.5312810
504.6304, 0.9685970
505.1125, 0.2891240
505.5946, 0.1891330
506.0768, 0.1996000
506.5589, 0.1550900
507.0410, 0.3443450
507.5231, 0.3220370
508.0052, 0.2714690
508.4873, 0.2565920
508.9695, 0.2798160
509.4516, 0.5361480
509.9337, 1.118195
510.4158, 1.561172
510.8979, 1.106216
511.3800, 2.5436001E-02
511.8622, 0.8099370
512.3443, 0.8993230
512.8264, 0.6299900
513.3085, 0.2969970
513.7906, 4.3869000E-02
514.2728, 0.1936800
514.7549, 0.3280030
515.2370, 0.8526310
515.7191, 0.6019290
516.2012, 0.5334010
516.6833, 1.291870
517.1655, 0.5798190
517.6476, 0.4932710
518.1297, 0.9703520
518.6118, 0.1623990
519.0939, 0.8821720
519.5760, 0.6247410
520.0582, 0.2462160
520.5403, 0.8690640
521.0224, 1.248459
521.5045, 1.351318
521.9866, 1.067581
522.4688, 0.3955690
522.9509, 6.7932002E-02
523.4330, 0.3783720
523.9151, 0.3687900
524.3972, 0.2016300
524.8793, 1.342880
525.3615, 2.403305
525.8436, 3.351028
526.3257, 4.148087
526.8078, 4.692749
527.2899, 5.015656
527.7720, 5.252853
528.2542, 5.452164
528.7363, 5.592346
529.2184, 5.557175
529.7005, 5.396851
530.1826, 5.389008
530.6647, 5.913101
531.1469, 6.538559
531.6290, 6.854919
532.1111, 6.726059
532.5932, 6.683746
533.0753, 6.887726
533.5574, 7.309570
534.0396, 7.913788
534.5217, 9.185760
535.0038, 10.07323
535.4859, 10.27721
535.9680, 9.991348
536.4501, 9.812057
536.9323, 9.749603
537.4144, 9.771301
537.8965, 9.819702
538.3786, 9.884506
538.8607, 10.39851
539.3428, 11.52303
539.8250, 12.57461
540.3071, 12.76326
540.7892, 12.18750
541.2713, 11.83524
541.7534, 11.86942
542.2355, 12.12541
542.7177, 12.33453
543.1998, 12.56686
543.6819, 13.04085
544.1640, 14.05344
544.6461, 15.20551
545.1282, 16.05287
545.6104, 16.66219
546.0925, 17.47006
546.5746, 18.65967
547.0567, 20.15094
547.5388, 21.97208
548.0209, 24.24767
548.5031, 26.37828
548.9852, 27.96251
549.4673, 29.60211
549.9494, 31.82837
550.4315, 35.07849
550.9136, 38.17947
551.3958, 40.96214
551.8779, 43.53821
552.3600, 46.24243
552.8421, 49.18665
553.3242, 51.81538
553.8063, 53.80919
554.2885, 55.31296
554.7706, 57.27335
555.2527, 59.71529
555.7348, 62.05327
556.2169, 63.74042
556.6990, 64.91502
557.1812, 66.00684
557.6633, 67.11139
558.1454, 68.14288
558.6275, 69.21432
559.1096, 70.07382
559.5917, 70.34943
560.0739, 69.62799
560.5560, 68.62103
561.0381, 67.69250
561.5202, 66.74222
562.0023, 65.28769
562.4844, 62.84583
562.9666, 60.29921
563.4487, 58.00076
563.9308, 55.98289
564.4129, 53.88248
564.8950, 51.38004
565.3771, 49.16885
565.8593, 47.90973
566.3414, 47.87131
566.8235, 47.59222
567.3056, 46.86371
567.7877, 45.87476
568.2698, 44.91333
568.7520, 44.04405
569.2341, 43.53323
569.7162, 43.34813
570.1983, 43.54477
570.6804, 44.46170
571.1625, 45.99652
571.6447, 47.45825
572.1268, 48.29269
572.6089, 48.95084
573.0910, 49.83275
573.5731, 51.02721
574.0552, 52.09981
574.5374, 52.93890
575.0195, 53.64743
575.5016, 54.24405
575.9837, 54.84802
576.4658, 55.04767
576.9479, 54.77957
577.4301, 54.12360
577.9122, 53.11819
578.3943, 51.54404
578.8764, 49.87311
579.3585, 48.18903
579.8406, 46.49142
580.3228, 44.90457
580.8049, 43.45421
581.2870, 41.87561
581.7691, 39.92245
582.2512, 37.73412
582.7333, 35.63297
583.2155, 33.62354
583.6975, 31.82034
584.1796, 30.25375
584.6617, 28.93881
585.1439, 27.90793
585.6260, 27.25101
586.1081, 26.73967
586.5902, 26.22704
587.0723, 25.75311
587.5544, 25.42790
588.0366, 25.35205
588.5187, 25.34189
589.0008, 25.45151
589.4829, 25.64536
589.9650, 25.44745
590.4471, 24.32837
590.9293, 23.52896
591.4114, 23.78607
591.8935, 25.32123
592.3756, 26.24170
592.8577, 26.39340
593.3398, 26.34566
593.8220, 26.71422
594.3041, 27.44714
594.7862, 28.08687
595.2683, 28.47740
595.7504, 28.95801
596.2325, 30.16617
596.7147, 31.84689
597.1968, 33.30855
597.6789, 33.94238
598.1610, 34.52342
598.6431, 35.72581
599.1252, 37.40681
599.6074, 38.90181
600.0895, 39.83826
600.5716, 40.66148
601.0537, 41.52403
601.5358, 42.37541
602.0179, 43.56392
602.5001, 45.31801
602.9822, 47.18945
603.4643, 48.84679
603.9464, 50.25389
604.4285, 51.61154
604.9106, 52.87776
605.3928, 54.22018
605.8749, 56.08411
606.3570, 58.41629
606.8391, 60.39110
607.3212, 61.64294
607.8033, 62.54962
608.2855, 63.68390
608.7676, 64.97585
609.2497, 66.21916
609.7318, 67.94049
610.2139, 69.07660
610.6960, 68.51724
611.1782, 66.26747
611.6603, 63.89941
612.1424, 62.26279
612.6245, 60.44159
613.1066, 57.83414
613.5887, 54.00612
614.0709, 50.21848
614.5530, 46.27599
615.0351, 42.51817
615.5172, 39.23267
615.9993, 36.40797
616.4814, 34.07356
616.9636, 32.42337
617.4457, 30.98566
617.9278, 28.67577
618.4099, 25.58302
618.8920, 22.66164
619.3741, 20.19632
619.8563, 18.16782
620.3384, 16.79027
620.8205, 15.94246
621.3026, 15.02786
621.7847, 13.58348
622.2668, 12.01863
622.7490, 10.62035
623.2311, 9.405441
623.7132, 8.407593
624.1953, 7.797394
624.6774, 7.306412
625.1595, 6.745972
625.6417, 6.045670
626.1238, 5.425629
626.6059, 4.933029
627.0880, 4.484787
627.5701, 3.876099
628.0522, 3.048035
628.5344, 2.728775
629.0165, 3.282898
629.4986, 4.109787
629.9807, 3.882660
630.4628, 2.787521
630.9449, 1.846649
631.4271, 1.625259
631.9092, 1.763504
632.3913, 2.051605
632.8734, 2.420227
633.3555, 2.474976
633.8376, 1.713287
634.3198, 0.8137050
634.8019, 0.1564030
635.2840, 0.2050780
635.7661, 0.4155730
636.2482, 0.5261230
636.7303, 0.4677430
637.2125, 0.1157680
637.6946, 0.8068240
638.1767, 1.187866
638.6588, 0.8691860
639.1409, 0.2126160
639.6230, 0.3179930
640.1052, 0.7265470
640.5873, 1.061172
641.0694, 1.345184
641.5515, 1.532486
642.0336, 1.528259
642.5157, 1.364807
642.9979, 1.133469
643.4800, 0.9135590
643.9621, 0.6170810
644.4442, 2.3190000E-03
644.9263, 0.8341220
645.4084, 1.229904
645.8906, 0.4311220
646.3727, 0.3752290
646.8548, 0.5652920
647.3369, 3.3813000E-02
647.8190, 0.2907410
648.3011, 0.2568050
648.7833, 0.2397610
649.2654, 0.5086210
649.7475, 1.080490
650.2296, 1.824951
650.7117, 2.768677
651.1938, 3.760330
651.6760, 4.672394
652.1581, 5.480835
652.6402, 6.064682
653.1223, 6.338791
653.6044, 6.491013
654.0865, 6.480621
654.5687, 6.499680
655.0508, 6.913849
655.5329, 8.269287
656.0150, 9.640076
656.4971, 10.61633
656.9792, 11.26741
657.4614, 12.08319
657.9435, 13.04230
658.4256, 14.23907
658.9077, 15.81888
659.3898, 17.75896
659.8719, 19.26620
660.3541, 20.24727
660.8362, 21.24290
661.3183, 22.61455
661.8004, 24.30151
662.2825, 26.14233
662.7646, 28.12738
663.2468, 30.35052
663.7289, 32.90305
664.2110, 35.73314
664.6931, 38.79813
665.1752, 42.13208
665.6573, 45.61621
666.1395, 48.92352
666.6216, 52.49289
667.1037, 56.85538
667.5858, 63.06812
668.0679, 68.82799
668.5500, 73.60150
669.0322, 77.98920
669.5143, 83.25165
669.9964, 89.63359
670.4785, 95.76669
670.9606, 101.1667
671.4427, 106.1051
671.9249, 111.5196
672.4070, 117.2766
672.8891, 122.1756
673.3712, 125.5587
673.8533, 127.6753
674.3354, 128.9826
674.8176, 129.4135
675.2997, 128.0590
675.7818, 123.5724
676.2639, 117.8536
676.7460, 112.0486
677.2281, 106.5760
677.7103, 100.1711
678.1924, 92.08240
678.6745, 83.79799
679.1566, 76.28452
679.6387, 69.58057
680.1208, 63.37546
680.6030, 57.59409
681.0851, 52.29266
681.5672, 47.40752
682.0493, 42.95407
682.5314, 38.75130
683.0135, 34.74030
683.4957, 31.10698
683.9778, 28.11292
684.4599, 25.65503
684.9420, 23.64868
685.4241, 22.63954
685.9063, 21.40915
686.3884, 19.08954
686.8705, 16.12563
687.3526, 14.02570
687.8347, 13.23691
688.3168, 12.74094
688.7990, 12.37288
689.2811, 12.09662
689.7632, 11.68919
690.2453, 11.15001
690.7274, 10.57870
691.2095, 9.960449
691.6917, 9.364197
692.1738, 9.105438
692.6559, 9.161667
693.1380, 9.021088
693.6201, 8.043228
694.1022, 6.855545
694.5844, 6.047272
695.0665, 5.729858
695.5486, 5.621841
696.0307, 5.953094
696.5128, 6.238922
696.9949, 6.063110
697.4771, 5.012619
697.9592, 4.355103
698.4413, 4.235977
698.9234, 4.338364
699.4055, 4.344208
699.8876, 4.267960
700.3698, 3.969788
700.8519, 3.383301
701.3340, 2.708328
701.8161, 2.115692
702.2982, 1.668549
702.7803, 1.505020
703.2625, 1.920349
703.7446, 2.349823
704.2267, 2.355423
704.7088, 2.089493
705.1909, 1.899933
705.6730, 2.066849
706.1552, 2.055923
706.6373, 1.621506
707.1194, 0.8897400
707.6015, 0.4254460
708.0836, 0.2102360
708.5657, 0.2795260
709.0479, 0.8067020
709.5300, 1.637100
710.0121, 2.037811
710.4942, 2.023407
710.9763, 1.979507
711.4584, 2.430283
711.9406, 2.859314
712.4227, 2.429138
712.9048, 1.133179
713.3869, 7.3013000E-02
713.8690, 6.9793999E-02
714.3511, 0.1049960
714.8333, 0.2367860
715.3154, 0.3094790
715.7975, 0.2741850
716.2796, 0.1073300
716.7617, 0.1248470
717.2438, 0.4181980
717.7260, 0.7926030
718.2081, 0.9501800
718.6902, 0.8364720
719.1723, 0.6340790
719.6544, 0.5807650
720.1365, 0.6024930
720.6187, 0.4966580
721.1008, 0.2115780
721.5829, 7.4447997E-02
722.0650, 0.1876070
722.5471, 0.2371980
723.0292, 0.3742980
723.5114, 0.8309940
723.9935, 1.132507
724.4756, 1.194550
724.9577, 1.058212
725.4398, 0.7266080
725.9219, 3.7430000E-02
726.4041, 0.3114320
726.8862, 7.5043000E-02
727.3683, 0.4655760
727.8504, 0.6433870
728.3325, 0.5045780
728.8146, 0.3484340
729.2968, 0.1159520
729.7789, 0.1039730
730.2610, 0.9978030
730.7431, 2.454330
731.2252, 3.358215
731.7073, 2.636383
732.1895, 1.885147
732.6716, 1.823944
733.1537, 2.345856
733.6358, 2.660126
734.1179, 2.820251
734.6000, 2.767365
735.0822, 2.385681
735.5643, 1.729538
736.0464, 1.377823
736.5285, 1.345581
737.0106, 1.344315
737.4927, 1.044327
737.9749, 0.6866910
738.4570, 0.7553710
738.9391, 1.260834
739.4212, 1.754303
739.9033, 2.031021
740.3854, 2.152252
740.8676, 2.168823
741.3497, 2.105652
741.8318, 1.907913
742.3139, 1.300308
742.7960, 0.7928470
743.2781, 0.8285220
743.7603, 1.528870
744.2424, 1.989105
744.7245, 2.200363
745.2066, 2.153946
745.6887, 1.574188
746.1708, 0.7362520
746.6530, 0.4669800
747.1351, 1.012939
747.6172, 1.588898
748.0993, 1.571381
748.5814, 1.285919
749.0635, 1.086380
749.5457, 0.9786070
750.0278, 1.085098
750.5099, 1.617294
750.9920, 2.230652
751.4741, 2.492722
751.9562, 2.293869
752.4384, 2.183029
752.9205, 2.256134
753.4026, 2.379089
753.8847, 2.213882
754.3668, 1.883438
754.8489, 1.934204
755.3311, 2.751785
755.8132, 3.586609
756.2953, 3.504211
756.7774, 3.024780
757.2595, 3.060822
757.7416, 4.541885
758.2238, 5.823074
758.7059, 6.836685
759.1880, 7.355835
759.6701, 6.684067
760.1522, 4.298111
760.6343, 2.420807
761.1165, 1.661469
761.5986, 1.689957
762.0807, 1.859528
762.5628, 2.130417
763.0449, 2.260971
763.5270, 2.099182
764.0092, 1.782715
764.4913, 1.231720
764.9734, 0.6037900
765.4555, 0.3811800
765.9376, 1.052994
766.4197, 1.828003
766.9019, 2.586716
767.3840, 3.292877
767.8661, 3.487137
768.3482, 2.938416
768.8303, 2.385712
769.3124, 2.117157
769.7946, 2.087906
770.2767, 2.032227
770.7588, 1.969070
771.2409, 2.066376
771.7230, 2.788284
772.2051, 3.497421
772.6873, 3.411301
773.1694, 2.620285
773.6515, 1.927658
774.1336, 1.562363
774.6157, 1.396820
775.0978, 1.461197
775.5800, 1.756287
776.0621, 1.835739
776.5442, 1.658463
777.0263, 1.385315
777.5084, 0.8914790
777.9905, 0.3255160
778.4727, 0.6766510
778.9548, 1.894485
779.4369, 2.903824
779.9190, 2.722397
780.4011, 2.064255
780.8832, 1.541504
781.3654, 1.203308
781.8475, 1.041245
782.3296, 1.318542
782.8117, 1.540024
783.2938, 1.362518
783.7759, 0.6858220
784.2581, 0.6308290
784.7402, 1.460098
785.2223, 2.260681
785.7044, 2.301285
786.1865, 1.759262
786.6686, 1.282791
787.1508, 0.8904570
787.6329, 0.6819310
788.1150, 1.109055
788.5971, 1.520844
789.0792, 1.099869
789.5613, 0.3874970
790.0435, 1.295715
790.5256, 0.8621060
791.0077, 7.0297003E-02
791.4898, 0.6469880
791.9719, 1.312073
792.4540, 1.600571
792.9362, 1.415604
793.4183, 1.212189
793.9004, 1.502899
794.3825, 2.061890
794.8646, 2.192108
795.3467, 1.839676
795.8289, 1.442886
796.3110, 1.423248
796.7931, 1.458923
797.2752, 1.251465
797.7573, 0.7009580
798.2394, 0.1950070
798.7216, 0.3235020
799.2037, 0.6720890
799.6858, 0.6861570
800.1679, 0.3097530
800.6500, 5.8439998E-03
801.1321, 0.2491300
801.6143, 0.4091190
802.0964, 0.3303830
802.5785, 0.1362920
803.0606, 5.5190999E-02
803.5427, 0.1126250
804.0248, 0.2530060
804.5070, 0.5988620
804.9891, 0.9422150
805.4712, 1.070023
805.9533, 0.8447270
806.4354, 0.7230220
806.9175, 0.6395570
807.3997, 0.7529600
807.8818, 1.415237
808.3639, 2.594589
808.8460, 2.750732
809.3281, 1.753677
809.8102, 0.6961360
810.2924, 0.7449490
810.7745, 1.256439
811.2566, 1.291306
811.7387, 0.6686860
812.2208, 0.1763150
812.7029, 0.1093750
813.1851, 0.3183590
813.6672, 0.8006740
814.1493, 1.744751
814.6314, 2.029587
815.1135, 1.415268
815.5956, 0.7327420
816.0778, 0.7746280
816.5599, 1.345993
817.0420, 1.490631
817.5241, 1.147736
818.0062, 0.7864840
818.4883, 0.8553160
818.9705, 1.027908
819.4526, 0.8930210
819.9347, 0.3127750
820.4168, 0.1079100
820.8989, 0.7767330
821.3810, 1.571060
821.8632, 2.197266
822.3453, 2.682465
822.8274, 2.658997
823.3095, 2.097702
823.7916, 1.301697
824.2737, 0.2235260
824.7559, 0.8660430
825.2380, 1.352386
825.7201, 1.204636
826.2022, 0.8316190
826.6843, 0.2569270
827.1664, 0.2868040
827.6486, 0.6327210
828.1307, 0.7434390
828.6128, 0.8068240
829.0949, 0.8176270
829.5770, 0.7891850
830.0591, 0.7024380
830.5413, 0.5672450
831.0234, 0.5807800
831.5055, 0.7369690
831.9876, 0.7423400
832.4697, 6.3415997E-02
832.9518, 0.6675260
833.4340, 0.6763150
833.9161, 3.2974001E-02
834.3982, 0.7352290
834.8803, 1.518997
835.3624, 1.879257
835.8445, 1.470337
836.3267, 0.3655850
836.8088, 0.3945010
837.2909, 0.7951510
837.7730, 0.9291690
838.2551, 0.7542420
838.7372, 0.3761140
839.2194, 3.3844002E-02
839.7015, 0.2717740
840.1836, 0.5346220
840.6657, 0.7488560
841.1478, 0.9157100
841.6299, 1.058075
842.1121, 1.164856
842.5942, 1.102020
843.0763, 0.7474370
843.5584, 0.4054570
844.0405, 0.1373600
844.5226, 3.7964001E-02
845.0048, 6.4087003E-02
845.4869, 6.0364000E-02
845.9690, 0.4027100
846.4511, 1.344391
846.9332, 2.211975
847.4153, 2.009491
847.8975, 1.060669
848.3796, 0.3763730
848.8617, 0.3965150
849.3438, 0.6344600
849.8259, 1.034241
850.3080, 1.504730
850.7902, 1.822052
851.2723, 1.977783
851.7544, 2.011902
852.2365, 1.899231
852.7186, 1.729156
853.2007, 1.453583
853.6829, 1.245239
854.1650, 1.590363
854.6471, 3.254456
855.1292, 4.771240
855.6113, 5.291138
856.0934, 5.208679
856.5756, 5.272705
857.0577, 5.678406
857.5398, 5.898987
858.0219, 5.743439
858.5040, 5.644287
858.9861, 6.507690
859.4683, 8.119568
859.9504, 9.306183
860.4325, 9.679535
860.9146, 9.887085
861.3967, 10.48093
861.8788, 11.26883
862.3610, 12.01999
862.8431, 12.64807
863.3252, 13.28388
863.8073, 14.06665
864.2894, 14.73553
864.7715, 15.00839
865.2537, 14.87485
865.7358, 14.58966
866.2179, 14.14661
866.7000, 13.74393
867.1821, 13.66513
867.6642, 13.72403
868.1464, 13.64603
868.6285, 13.37717
869.1106, 13.07971
869.5927, 12.79935
870.0748, 12.52063
870.5569, 12.18713
871.0391, 11.74081
871.5212, 11.56680
872.0033, 11.61963
872.4854, 12.10593
872.9675, 13.61905
873.4496, 15.57013
873.9318, 16.38019
874.4139, 16.07547
874.8960, 15.64380
875.3781, 15.48929
875.8602, 15.54373
876.3423, 15.68185
876.8245, 15.93134
877.3066, 16.85776
877.7887, 18.88824
878.2708, 20.63596
878.7529, 21.40140
879.2350, 21.53995
879.7172, 22.14282
880.1993, 23.20285
880.6814, 24.67349
881.1635, 26.72495
881.6456, 29.00562
882.1277, 31.23587
882.6099, 33.43597
883.0920, 35.82053
883.5741, 38.59167
884.0562, 41.40753
884.5383, 44.16949
885.0204, 47.00613
885.5026, 50.29724
885.9847, 54.01227
886.4668, 57.75479
886.9489, 61.32184
887.4310, 65.08319
887.9131, 69.41467
888.3953, 74.16843
888.8774, 79.19055
889.3595, 84.97833
889.8416, 90.19537
890.3237, 94.45721
890.8058, 98.25296
891.2880, 102.2088
891.7701, 106.3625
892.2522, 110.3565
892.7343, 114.2338
893.2164, 117.6412
893.6985, 120.4145
894.1807, 122.3862
894.6628, 123.3401
895.1449, 123.2078
895.6270, 122.1823
896.1091, 119.8762
896.5912, 117.0941
897.0734, 114.3208
897.5555, 111.6102
898.0376, 108.3201
898.5197, 104.3592
899.0018, 100.5635
899.4839, 97.52979
899.9661, 95.10284
900.4482, 93.24283
900.9303, 91.81335
901.4124, 90.12247
901.8945, 87.24844
902.3766, 84.57898
902.8588, 83.04257
903.3409, 82.32846
903.8230, 80.86380
904.3051, 78.42902
904.7872, 76.04285
905.2693, 74.06866
905.7515, 72.25705
906.2336, 70.21390
906.7157, 67.90134
907.1978, 65.20535
907.6799, 61.74875
908.1620, 58.32971
908.6442, 55.33185
909.1263, 52.57541
909.6084, 49.70816
910.0905, 46.59088
910.5726, 43.70636
911.0547, 41.03183
911.5369, 38.65927
912.0190, 36.95358
912.5011, 35.62579
912.9832, 33.82947
913.4653, 31.38379
913.9474, 28.70718
914.4296, 25.51187
914.9117, 22.56723
915.3938, 20.62775
915.8759, 19.95468
916.3580, 19.34393
916.8401, 18.87378
917.3223, 18.25500
917.8044, 17.14377
918.2865, 15.71924
918.7686, 14.57349
919.2507, 13.71338
919.7328, 13.10965
920.2150, 13.12643
920.6971, 13.07227
921.1792, 12.43176
921.6613, 11.26526
922.1434, 10.18976
922.6255, 9.127563
923.1077, 8.413574
923.5898, 8.250275
924.0719, 8.427734
924.5540, 8.530212
925.0361, 8.543732
925.5182, 8.449005
926.0004, 8.237854
926.4825, 7.886658
926.9646, 7.075165
927.4467, 6.235474
927.9288, 6.091583
928.4109, 7.335358
928.8931, 7.563751
929.3752, 6.402954
929.8573, 5.055511
930.3394, 5.146027
930.8215, 6.220642
931.3036, 6.490479
931.7858, 5.706360
932.2679, 4.758575
932.7500, 4.081329
933.2321, 3.637329
933.7142, 3.461853
934.1964, 3.603485
934.6785, 3.572784
935.1606, 3.356323
935.6427, 3.015106
936.1248, 2.467865
936.6069, 1.852051
937.0891, 1.737213
937.5712, 2.034393
938.0533, 2.313141
938.5354, 2.287598
939.0175, 2.219391
939.4996, 2.197144
939.9818, 2.259796
940.4639, 2.472992
940.9460, 2.778381
941.4281, 3.319183
941.9102, 4.310272
942.3923, 5.212799
942.8745, 4.739075
943.3566, 3.434265
943.8387, 3.025208
944.3208, 4.215393
944.8029, 5.274475
945.2850, 4.882263
945.7672, 4.121033
946.2493, 4.038544
946.7314, 4.800934
947.2135, 5.743622
947.6956, 6.978241
948.1777, 8.019104
948.6599, 8.175537
949.1420, 7.918152
949.6241, 8.556946
950.1062, 9.993073
950.5883, 11.19092
951.0704, 11.30920
951.5526, 11.32562
952.0347, 11.62567
952.5168, 12.22519
952.9989, 13.29828
953.4810, 15.02069
953.9631, 16.33466
954.4453, 16.79333
954.9274, 16.95273
955.4095, 18.04013
955.8916, 19.49008
956.3737, 20.04443
956.8558, 18.76419
957.3380, 17.57260
957.8201, 17.42444
958.3022, 17.45810
958.7843, 16.79135
959.2664, 15.21005
959.7485, 14.20596
960.2307, 13.89026
960.7128, 13.67386
961.1949, 13.03366
961.6770, 12.16730
962.1591, 11.41956
962.6412, 10.78510
963.1234, 9.899567
963.6055, 8.003296
964.0876, 6.545990
964.5697, 6.183624
965.0518, 6.628540
965.5339, 6.634552
966.0161, 6.197479
966.4982, 5.505676
966.9803, 4.425293
967.4624, 3.456665
967.9445, 3.356995
968.4266, 3.719452
968.9088, 3.874359
969.3909, 3.543945
969.8730, 3.124908
970.3551, 2.622955
970.8372, 2.080963
971.3193, 1.508728
971.8015, 0.9219970
972.2836, 0.3499150
972.7657, 0.2043150
973.2478, 0.5501710
973.7299, 0.3777470
974.2120, 5.6304999E-02
974.6942, 0.1322630
975.1763, 0.1607060
975.6584, 8.8561997E-02
976.1405, 0.1914370
976.6226, 0.3311460
977.1047, 0.1826170
977.5869, 0.1694340
978.0690, 0.6549070
978.5511, 1.163239
979.0332, 1.271149
979.5153, 0.3881230
979.9974, 0.3283080
980.4796, 1.0132000E-02
980.9617, 0.7376710
981.4438, 1.076202
981.9259, 0.9459230
982.4080, 0.4574890
982.8901, 0.5021970
983.3723, 1.363007
983.8544, 1.360657
984.3365, 0.9243470
984.8186, 1.023773
985.3007, 1.706604
985.7828, 1.848694
986.2650, 5.7434000E-02
986.7471, 1.421844
987.2292, 1.452240
987.7113, 0.3676760
988.1934, 0.1298220
988.6755, 5.8715999E-02
989.1577, 0.1217350
989.6398, 0.2801210
990.1219, 0.3538210
990.6040, 0.1689450
991.0861, 0.1072390
991.5682, 0.2354430
992.0504, 1.9592000E-02
992.5325, 0.2206420
993.0146, 0.4977720
993.4967, 0.7380680
993.9788, 0.8767700
994.4609, 0.9206850
994.9431, 0.9224850
995.4252, 0.8860470
995.9073, 0.7874150
996.3894, 0.5906980
996.8715, 0.3418580
997.3536, 3.1158000E-02
997.8358, 0.4778140
998.3179, 0.5430910
998.8000, 9.8632999E-02
999.2821, 0.4125060
999.7642, 0.8717040
1000.246, 1.319061
1000.728, 2.054962
1001.211, 2.826965
1001.693, 2.856995
1002.175, 1.397797
1002.657, 0.3041380
1003.139, 0.6698000
1003.621, 1.582825
1004.103, 2.238647
1004.585, 2.607330
1005.068, 2.771454
1005.550, 2.692627
1006.032, 2.795135
1006.514, 3.616089
1006.996, 4.659210
1007.478, 5.261719
1007.960, 5.487244
1008.442, 5.839874
1008.924, 6.499451
1009.407, 7.279816
1009.889, 8.253906
1010.371, 9.232391
1010.853, 9.804016
1011.335, 10.01846
1011.817, 10.03467
1012.299, 9.743134
1012.781, 9.922943
1013.263, 11.98602
1013.746, 14.29468
1014.228, 15.01376
1014.710, 13.54727
1015.192, 13.40439
1015.674, 15.08380
1016.156, 16.46179
1016.638, 15.79413
1017.120, 14.14926
1017.603, 14.27481
1018.085, 15.55688
1018.567, 15.80182
1019.049, 12.53763
1019.531, 9.891479
1020.013, 9.457184
1020.495, 10.02756
1020.977, 9.911499
1021.459, 9.088318
1021.942, 8.251678
1022.424, 7.475739
1022.906, 6.761505
1023.388, 5.993622
1023.870, 5.357666
1024.352, 5.148987
1024.834, 5.443970
1025.316, 5.418304
1025.799, 4.825989
1026.281, 4.356293
1026.763, 4.388306
1027.245, 4.647125
1027.727, 4.265289
1028.209, 3.462555
1028.691, 2.988983
1029.173, 3.436768
1029.656, 3.791138
1030.138, 3.499603
1030.620, 2.913818
1031.102, 2.320251
1031.584, 1.637909
1032.066, 1.726929
1032.548, 2.677765
1033.030, 3.532013
1033.512, 3.139679
1033.995, 2.450134
1034.477, 2.786438
1034.959, 4.001892
1035.441, 4.619904
1035.923, 3.939636
1036.405, 3.135834
1036.887, 2.334412
1037.369, 1.651764
1037.851, 1.292023
1038.334, 1.260101
1038.816, 1.494263
1039.298, 2.100525
1039.780, 2.429169
1040.262, 1.669220
1040.744, 0.7641910
1041.226, 0.5345150
1041.708, 1.087494
1042.191, 1.478668
1042.673, 1.691650
1043.155, 1.609467
1043.637, 1.087280
1044.119, 0.5049440
1044.601, 5.2551001E-02
1045.083, 0.4602360
1045.565, 0.4266970
1046.047, 0.8595580
1046.530, 1.509613
1047.012, 1.161621
1047.494, 0.4586790
1047.976, 7.8064002E-02
1048.458, 0.4029850
1048.940, 1.2939000E-02
1049.422, 1.207245
1049.904, 2.171539
1050.386, 2.056183
1050.869, 1.696625
1051.351, 1.598389
1051.833, 1.691498
1052.315, 1.569733
1052.797, 1.160126
1053.279, 1.163879
1053.761, 1.949280
1054.243, 2.734131
1054.726, 2.241272
1055.208, 1.227264
1055.690, 0.8166500
1056.172, 1.544373
1056.654, 2.012817
1057.136, 2.015656
1057.618, 1.877075
1058.100, 1.765106
1058.583, 1.679504
1059.065, 1.742157
1059.547, 1.888550
1060.029, 1.816864
1060.511, 1.071411
1060.993, 0.4253850
1061.475, 0.1542050
1061.957, 0.1899110
1062.439, 0.5763850
1062.922, 1.394165
1063.404, 1.818878
1063.886, 1.761505
1064.368, 1.541962
1064.850, 1.272766
1065.332, 1.107147
1065.814, 1.352997
1066.296, 1.962372
1066.778, 2.101624
1067.261, 1.450165
1067.743, 0.8868710
1068.225, 0.5274350
1068.707, 0.4905700
1069.189, 1.536835
1069.671, 3.096985
1070.153, 3.717987
1070.635, 2.766449
1071.118, 1.906921
1071.600, 2.017548
1072.082, 2.232819
1072.564, 2.039154
1073.046, 1.485687
1073.528, 1.176849
1074.010, 1.084564
1074.492, 0.9343870
1074.974, 0.4350590
1075.457, 2.0050000E-02
1075.939, 2.5940000E-03
1076.421, 0.2926030
1076.903, 0.7800290
1077.385, 1.627411
1077.867, 2.072235
1078.349, 2.007904
1078.831, 1.831421
1079.313, 2.028351
1079.796, 2.277740
1080.278, 1.902802
1080.760, 1.009369
1081.242, 0.5526430
1081.724, 1.378693
1082.206, 1.929749
1082.688, 1.784515
1083.170, 1.347565
1083.652, 1.444275
1084.135, 1.904297
1084.617, 2.050171
1085.099, 1.727051
1085.581, 1.322235
1086.063, 0.9919740
1086.545, 0.7231140
1087.027, 0.4895320
1087.509, 0.2970580
1087.992, 0.1940610
1088.474, 0.1809690
1088.956, 0.3070070
1089.438, 0.7429200
1089.920, 1.061279
1090.402, 0.6105040
1090.884, 0.1154170
1091.366, 0.4141240
1091.849, 4.5170002E-03
1092.331, 0.3245850
1092.813, 0.5708010
1093.295, 0.7441410
1093.777, 0.7653200
1094.259, 0.7584840
1094.741, 1.109680
1095.223, 1.659485
1095.705, 1.852173
1096.188, 0.8166500
1096.670, 0.3477480
1097.152, 0.9434200
1097.634, 1.909180
1098.116, 2.411469
1098.598, 2.503662
1099.080, 2.389343
1099.562, 2.098694
1100.044, 1.806763
1100.527, 1.764038
1101.009, 1.604889
1101.491, 0.9530030
1101.973, 6.4758003E-02
1102.455, 0.1562500
1102.937, 0.2930600
1103.419, 0.5480650
1103.901, 0.4060060
1104.384, 0.1021120
1104.866, 0.3026120
1105.348, 0.6004640
1105.830, 0.5639950
1106.312, 0.1292420
1106.794, 0.3865660
1107.276, 1.070190
1107.758, 1.376282
1108.240, 0.8002620
1108.723, 3.4545999E-02
1109.205, 0.3058780
1109.687, 1.176849
1110.169, 1.807251
1110.651, 1.895905
1111.133, 1.834290
1111.615, 1.610382
1112.097, 1.332672
1112.579, 1.051392
1113.062, 0.7852480
1113.544, 0.6371150
1114.026, 0.5782470
1114.508, 0.4791560
1114.990, 1.6998000E-02
1115.472, 0.1557920
1115.954, 0.3737490
1116.436, 1.120880
1116.919, 1.532623
1117.401, 1.614899
1117.883, 1.219543
1118.365, 0.3357240
1118.847, 0.3122560
1119.329, 7.1014002E-02
1119.811, 0.6068420
1120.293, 0.6522220
1120.776, 0.3616030
1121.258, 0.2904360
1121.740, 0.4382930
1122.222, 0.8768010
1122.704, 1.728607
1123.186, 2.381592
1123.668, 2.098145
1124.150, 1.358704
1124.632, 0.5088500
1125.115, 0.4441830
1125.597, 0.6489260
1126.079, 0.1204830
1126.561, 0.9180910
1127.043, 1.443176
1127.525, 1.725891
1128.007, 1.666779
1128.489, 1.459076
1128.971, 1.500732
1129.454, 2.224335
1129.936, 2.193085
1130.418, 0.8066710
1130.900, 0.3882450
1131.382, 0.3002010
1131.864, 0.6232600
1132.346, 1.064209
1132.828, 1.139191
1133.311, 1.227783
1133.793, 1.645844
1134.275, 1.894379
1134.757, 1.627258
1135.239, 1.376312
1135.721, 1.737976
1136.203, 2.611115
1136.685, 3.255432
1137.167, 3.638184
1137.650, 3.688385
1138.132, 2.945862
1138.614, 2.317993
1139.096, 2.452972
1139.578, 2.893524
1140.060, 2.852509
1140.542, 2.317291
1141.024, 2.116455
1141.506, 2.348724
1141.989, 2.761505
1142.471, 3.588257
1142.953, 4.145905
1143.435, 3.621582
1143.917, 2.311920
1144.399, 1.759491
1144.881, 2.101746
1145.363, 2.247498
1145.846, 1.881439
1146.328, 1.579926
1146.810, 2.131470
1147.292, 2.980957
1147.774, 3.567657
1148.256, 3.795532
1148.738, 3.894226
1149.220, 3.811157
1149.703, 3.811340
1150.185, 3.976898
1150.667, 4.193970
1151.149, 4.376404
1151.631, 4.469727
1152.113, 4.366211
1152.595, 3.970551
1153.077, 3.643280
1153.559, 3.445648
1154.042, 3.224487
1154.524, 2.773956
1155.006, 2.355164
1155.488, 2.836792
1155.970, 3.797913
1156.452, 4.192749
1156.934, 3.389435
1157.416, 2.486633
1157.898, 1.361603
1158.381, 0.6161500
1158.863, 0.8998110
1159.345, 1.932953
1159.827, 2.700043
1160.309, 3.195648
1160.791, 3.431000
1161.273, 3.147980
1161.755, 2.907715
1162.238, 2.770264
1162.720, 2.795288
1163.202, 3.171844
1163.684, 3.830444
1164.166, 4.326599
1164.648, 4.597382
1165.130, 4.450714
1165.612, 3.154526
1166.094, 2.143463
1166.577, 2.251068
1167.059, 2.862076
1167.541, 3.007263
1168.023, 2.746033
1168.505, 2.755554
1168.987, 3.108521
1169.469, 3.535248
1169.951, 3.952118
1170.433, 4.286880
1170.916, 4.620392
1171.398, 4.809189
1171.880, 4.286011
1172.362, 3.062485
1172.844, 2.313675
1173.326, 2.278763
1173.808, 2.577881
1174.290, 3.181458
1174.773, 3.738464
1175.255, 3.905319
1175.737, 3.759338
1176.219, 3.678207
1176.701, 3.651550
1177.183, 3.706711
1177.665, 3.868439
1178.147, 3.990646
1178.630, 4.014557
1179.112, 3.898331
1179.594, 3.462936
1180.076, 2.686600
1180.558, 2.205109
1181.040, 2.026443
1181.522, 2.088043
1182.004, 2.407669
1182.486, 2.756012
1182.969, 3.071854
1183.451, 3.199463
1183.933, 2.889648
1184.415, 1.982880
1184.897, 1.336868
1185.379, 0.9423830
1185.861, 0.8471220
1186.343, 1.146194
1186.825, 1.569595
1187.308, 1.895721
1187.790, 2.144501
1188.272, 2.368973
1188.754, 2.716858
1189.236, 2.432083
1189.718, 1.333588
1190.200, 0.5837550
1190.682, 1.424667
1191.165, 2.644730
1191.647, 2.537384
1192.129, 1.653885
1192.611, 1.097610
1193.093, 1.124100
1193.575, 1.443176
1194.057, 2.172745
1194.539, 2.702332
1195.021, 2.238678
1195.504, 1.511551
1195.986, 1.639801
1196.468, 2.343140
1196.950, 2.762238
1197.432, 2.676712
1197.914, 2.466370
1198.396, 2.051361
1198.878, 1.657043
1199.360, 1.411346
1199.843, 1.381393
1200.325, 1.837784
1200.807, 2.633408
1201.289, 3.163071
1201.771, 3.439774
1202.253, 3.098022
1202.735, 1.881622
1203.217, 0.7585450
1203.700, 1.070557
1204.182, 2.019180
1204.664, 2.336533
1205.146, 2.081726
1205.628, 2.170151
1206.110, 3.132538
1206.592, 3.462936
1207.074, 2.742081
1207.557, 1.836395
1208.039, 1.895676
1208.521, 2.424255
1209.003, 2.745880
1209.485, 2.803070
1209.967, 2.784698
1210.449, 2.676147
1210.931, 2.600250
1211.413, 2.575272
1211.896, 2.616745
1212.378, 2.815277
1212.860, 3.058578
1213.342, 3.217346
1213.824, 3.278076
1214.306, 3.085449
1214.788, 2.462479
1215.270, 2.090317
1215.752, 2.209488
1216.235, 2.507370
1216.717, 2.704071
1217.199, 2.707703
1217.681, 2.259857
1218.163, 1.273666
1218.645, 0.7299800
1219.127, 0.8046420
1219.609, 0.9699100
1220.092, 1.097794
1220.574, 1.149185
1221.056, 0.8875120
1221.538, 0.5979770
1222.020, 0.8496860
1222.502, 1.871002
1222.984, 1.979645
1223.466, 0.7563630
1223.948, 0.1725920
1224.431, 0.1838530
1224.913, 0.3142550
1225.395, 1.017441
1225.877, 1.706757
1226.359, 2.073059
1226.841, 2.003021
1227.323, 1.854874
1227.805, 1.564941
1228.287, 1.364166
1228.770, 1.423111
1229.252, 1.516647
1229.734, 1.230865
1230.216, 0.8392030
1230.698, 0.7298430
1231.180, 1.014511
1231.662, 1.346176
1232.144, 1.757050
1232.627, 2.047012
1233.109, 2.117126
1233.591, 2.042023
1234.073, 1.924911
1234.555, 1.716080
1235.037, 1.302292
1235.519, 0.6258090
1236.001, 4.8859000E-02
1236.484, 0.4524080
1236.966, 0.5307010
1237.448, 0.3404850
1237.930, 1.176651
1238.412, 0.5778200
1238.894, 0.4597170
1239.376, 0.4227450
1239.858, 0.9867710
1240.340, 1.540314
1240.823, 1.213409
1241.305, 0.7959590
1241.787, 0.7459870
1242.269, 0.7052760
1242.751, 0.1629330
1243.233, 0.4229430
1243.715, 0.4139860
1244.197, 0.2753600
1244.679, 0.5554050
1245.162, 0.4436190
1245.644, 0.6740260
1246.126, 2.198730
1246.608, 3.473846
1247.090, 3.156250
1247.572, 2.230743
1248.054, 1.874725
1248.536, 2.113007
1249.019, 2.289764
1249.501, 2.388107
1249.983, 2.162613
1250.465, 0.9040370
1250.947, 1.2405000E-02
1251.429, 0.5271150
1251.911, 1.516312
1252.393, 2.231949
1252.875, 2.660873
1253.358, 2.551071
1253.840, 1.951660
1254.322, 1.227127
1254.804, 0.1679690
1255.286, 0.4633330
1255.768, 0.1306610
1256.250, 0.4331670
1256.732, 0.6003570
1257.214, 0.4608150
1257.697, 0.3683470
1258.179, 0.4360350
1258.661, 1.144165
1259.143, 4.324188
1259.625, 5.729401
1260.107, 3.901367
1260.589, 1.372314
1261.071, 5.6931000E-02
1261.554, 0.2045590
1262.036, 0.5869140
1262.518, 2.018173
1263.000, 2.741425
1263.482, 1.439651
1263.964, 0.6038670
1264.446, 0.4893190
1264.928, 0.8164520
1265.411, 1.673813
1265.893, 2.648880
1266.375, 2.947144
1266.857, 2.699890
1267.339, 2.271912
1267.821, 1.514221
1268.303, 0.9891200
1268.785, 0.6525270
1269.267, 0.7749480
1269.750, 2.280548
1270.232, 3.747787
1270.714, 3.185760
1271.196, 1.323776
1271.678, 0.2144930
1272.160, 0.2610020
1272.642, 0.3754730
1273.124, 0.5196380
1273.606, 0.7502900
1274.089, 1.721283
1274.571, 2.511017
1275.053, 2.065491
1275.535, 1.014206
1276.017, 0.4798430
1276.499, 0.5520630
1276.981, 0.7767030
1277.463, 1.141479
1277.946, 1.412933
1278.428, 1.330368
1278.910, 1.232208
1279.392, 1.346741
1279.874, 1.553024
1280.356, 1.550812
1280.838, 1.326248
1281.320, 0.9802250
1281.802, 0.5577390
1282.285, 0.3808750
1282.767, 1.018753
1283.249, 1.411636
1283.731, 0.8409880
1284.213, 8.9965999E-02
1284.695, 0.2025760
1285.177, 9.4223000E-02
1285.659, 0.2037660
1286.141, 0.6628420
1286.624, 1.180038
1287.106, 2.124359
1287.588, 2.411102
1288.070, 1.611755
1288.552, 0.8125150
1289.034, 1.131042
1289.516, 2.002304
1289.998, 2.126282
1290.481, 1.737442
1290.963, 1.450958
1291.445, 1.555649
1291.927, 1.551804
1292.409, 1.382034
1292.891, 1.313675
1293.373, 1.703674
1293.855, 2.160385
1294.338, 1.925674
1294.820, 1.632172
1295.302, 1.678909
1295.784, 2.367722
1296.266, 2.062012
1296.748, 0.6780090
1297.230, 0.1977230
1297.712, 0.9288330
1298.194, 2.317749
1298.677, 2.750748
1299.159, 2.541229
1299.641, 1.931168
1300.123, 0.8885650
1300.605, 0.3393400
1301.087, 0.9875180
1301.569, 1.446991
1302.051, 1.327789
1302.533, 0.8444670
1303.016, 0.0000000E+00
##END=



