##NAMES=Scottyite
##RRUFFID=R120077
##IDEAL CHEMISTRY=BaCu^2+^_2_Si_2_O_7_
##LOCALITY=Wessels mine, Kalahari Manganese Fields, Northern Cape Province, South Africa
##OWNER=RRUFF
##SOURCE=William W. Pinch and Marcus Origlieri
##DESCRIPTION=Blue massive, associated with R120019 wesselsite and R120057 lavinskyite
##STATUS=The identification of this mineral is confirmed by single-crystal X-ray diffraction and chemical analysis.
##URL=rruff.info/R120077
##MEASURED CHEMISTRY=Ba_1.00_Sr_0.01_Na_0.01_Cu_2.04_Si_1.97_O_7_ ; (Scottyite is light grey material in image, associated with dark grey R120057 lavinskyite, and medium gray R120019 wesselsite
91.60352, 0.0000000E+00
92.08563, 2.3163000E-02
92.56775, 0.9343410
93.04987, 7.626556
93.53198, 14.69522
94.01410, 17.70409
94.49622, 17.47694
94.97833, 16.07808
95.46045, 14.71872
95.94257, 13.56125
96.42468, 12.69035
96.90680, 12.65781
97.38892, 12.71373
97.87103, 12.83611
98.35315, 11.60970
98.83527, 9.476334
99.31738, 7.612656
99.79950, 6.283279
100.2816, 5.014587
100.7637, 3.907089
101.2458, 2.909195
101.7280, 1.985123
102.2101, 1.165802
102.6922, 0.4815670
103.1743, 4.3120999E-02
103.6564, 0.4848940
104.1385, 0.6726380
104.6207, 0.3791660
105.1028, 0.2443240
105.5849, 0.6777190
106.0670, 0.6370390
106.5491, 0.3662870
107.0313, 8.4412001E-02
107.5134, 0.2447810
107.9955, 0.3841400
108.4776, 8.5297003E-02
108.9597, 0.6835020
109.4418, 1.727814
109.9240, 2.921799
110.4061, 4.382874
110.8882, 6.210419
111.3703, 8.407440
111.8524, 10.96870
112.3345, 13.94098
112.8167, 17.65753
113.2988, 21.48827
113.7809, 25.16090
114.2630, 28.90640
114.7451, 32.94556
115.2272, 37.33289
115.7094, 42.15059
116.1915, 48.44095
116.6736, 55.93053
117.1557, 64.88855
117.6378, 75.34514
118.1199, 87.36176
118.6021, 101.3812
119.0842, 118.5269
119.5663, 138.9417
120.0484, 154.9131
120.5305, 169.6382
121.0126, 178.3579
121.4948, 175.5088
121.9769, 159.8083
122.4590, 137.9861
122.9411, 113.3317
123.4232, 87.03619
123.9053, 64.48570
124.3875, 48.18102
124.8696, 37.06779
125.3517, 28.60226
125.8338, 23.31660
126.3159, 19.77007
126.7980, 16.86913
127.2802, 14.54851
127.7623, 12.58521
128.2444, 10.74879
128.7265, 9.017899
129.2086, 7.736359
129.6907, 7.173096
130.1729, 6.919586
130.6550, 6.783310
131.1371, 6.758820
131.6192, 7.005005
132.1013, 7.764862
132.5834, 9.274673
133.0656, 10.90475
133.5477, 12.34082
134.0298, 14.02922
134.5119, 16.40384
134.9940, 19.58214
135.4761, 23.26451
135.9583, 26.74866
136.4404, 29.32753
136.9225, 32.58623
137.4046, 36.72588
137.8867, 41.58476
138.3688, 46.95427
138.8510, 52.81422
139.3331, 59.04080
139.8152, 65.19598
140.2973, 71.34865
140.7794, 77.38255
141.2615, 83.73285
141.7437, 90.11009
142.2258, 95.44594
142.7079, 99.42114
143.1900, 101.5269
143.6721, 101.4424
144.1542, 98.35837
144.6364, 94.11407
145.1185, 89.92917
145.6006, 85.57555
146.0827, 82.79700
146.5648, 82.93697
147.0469, 85.18301
147.5291, 88.95930
148.0112, 94.43892
148.4933, 101.1210
148.9754, 107.7668
149.4575, 114.2852
149.9396, 121.4439
150.4218, 130.0179
150.9039, 139.2315
151.3860, 148.0286
151.8681, 155.7927
152.3502, 162.6611
152.8323, 169.4154
153.3145, 175.6203
153.7966, 182.1786
154.2787, 189.2909
154.7608, 196.9288
155.2429, 205.0468
155.7250, 213.6855
156.2072, 222.8635
156.6893, 232.0647
157.1714, 242.4412
157.6535, 251.8468
158.1356, 259.7311
158.6177, 265.9144
159.0999, 270.2204
159.5820, 272.3429
160.0641, 271.8929
160.5462, 270.8892
161.0283, 268.4741
161.5104, 266.0928
161.9926, 264.5458
162.4747, 263.9919
162.9568, 264.8299
163.4389, 267.6324
163.9210, 272.3453
164.4031, 278.3558
164.8853, 286.1419
165.3674, 295.0099
165.8495, 304.2199
166.3316, 314.1744
166.8137, 323.2305
167.2958, 331.3121
167.7780, 338.0381
168.2601, 340.0299
168.7422, 335.0804
169.2243, 323.9332
169.7064, 309.3047
170.1885, 289.7882
170.6707, 268.6381
171.1528, 247.5548
171.6349, 226.6937
172.1170, 206.3240
172.5991, 186.4252
173.0812, 166.9642
173.5634, 148.9658
174.0455, 132.9191
174.5276, 118.0338
175.0097, 104.0325
175.4918, 90.92058
175.9739, 78.97415
176.4561, 68.65929
176.9382, 60.15140
177.4203, 52.53625
177.9024, 45.59320
178.3845, 39.60573
178.8666, 34.99150
179.3488, 31.69948
179.8309, 29.17149
180.3130, 26.69641
180.7951, 24.00740
181.2772, 22.10484
181.7593, 21.07539
182.2415, 20.65323
182.7236, 20.71187
183.2057, 21.20197
183.6878, 22.06888
184.1699, 23.23543
184.6520, 24.74748
185.1342, 26.56761
185.6163, 28.81773
186.0984, 31.32350
186.5805, 34.21896
187.0626, 37.60808
187.5447, 40.63631
188.0269, 41.78120
188.5090, 41.09047
188.9911, 39.05952
189.4732, 35.05142
189.9553, 29.87065
190.4374, 24.86784
190.9196, 20.29453
191.4017, 16.19514
191.8838, 12.47411
192.3659, 9.054169
192.8480, 6.315887
193.3301, 4.716049
193.8123, 4.013702
194.2944, 3.319839
194.7765, 2.428192
195.2586, 1.459641
195.7407, 0.4673770
196.2228, 0.5501250
196.7050, 1.359268
197.1871, 1.706558
197.6692, 1.612289
198.1513, 1.542206
198.6334, 1.644562
199.1155, 1.742081
199.5977, 1.658203
200.0798, 1.398346
200.5619, 1.190643
201.0440, 1.365402
201.5261, 2.031296
202.0082, 2.356995
202.4904, 1.962631
202.9725, 1.386124
203.4546, 0.8379060
203.9367, 0.3609920
204.4188, 7.5668000E-02
204.9009, 0.4652710
205.3831, 0.7139590
205.8652, 1.220993
206.3473, 2.158173
206.8294, 3.210068
207.3115, 4.233276
207.7936, 5.185165
208.2758, 6.076385
208.7579, 6.890381
209.2400, 7.498489
209.7221, 8.327393
210.2042, 9.519714
210.6863, 10.78720
211.1685, 11.99661
211.6506, 13.09682
212.1327, 14.05186
212.6148, 14.81796
213.0969, 15.36484
213.5790, 15.71727
214.0612, 15.85213
214.5433, 15.82527
215.0254, 15.62421
215.5075, 15.26247
215.9896, 14.86041
216.4717, 14.59294
216.9539, 14.52512
217.4360, 14.45195
217.9181, 14.37469
218.4002, 14.28815
218.8823, 14.27913
219.3644, 14.37122
219.8466, 14.28990
220.3287, 13.59489
220.8108, 12.18254
221.2929, 10.74695
221.7750, 9.375427
222.2571, 8.029373
222.7393, 6.610947
223.2214, 5.076187
223.7035, 3.623001
224.1856, 2.549973
224.6677, 1.822784
225.1498, 1.211990
225.6320, 0.7626950
226.1141, 0.3703160
226.5962, 0.1894680
227.0783, 1.027634
227.5604, 1.813255
228.0425, 2.181969
228.5247, 2.213791
229.0068, 2.157249
229.4889, 2.015137
229.9710, 1.857857
230.4531, 1.886406
230.9352, 2.228569
231.4174, 2.525871
231.8995, 2.490631
232.3816, 2.200607
232.8637, 1.842606
233.3458, 1.509689
233.8279, 1.178482
234.3101, 0.7571410
234.7922, 0.2073060
235.2743, 0.3693850
235.7564, 0.8693700
236.2385, 1.346176
236.7206, 1.921814
237.2028, 2.716873
237.6849, 3.665771
238.1670, 4.509628
238.6491, 5.260788
239.1312, 5.866745
239.6133, 6.233810
240.0955, 6.476883
240.5776, 6.823837
241.0597, 7.493713
241.5418, 8.350876
242.0239, 8.713821
242.5060, 8.364075
242.9882, 7.760788
243.4703, 6.834641
243.9524, 5.811630
244.4345, 5.026443
244.9166, 4.706055
245.3987, 4.730453
245.8809, 4.524857
246.3630, 3.760406
246.8451, 3.192169
247.3272, 3.075699
247.8093, 3.203674
248.2914, 3.332687
248.7736, 3.338455
249.2557, 3.219894
249.7378, 2.955536
250.2199, 2.158691
250.7020, 1.689590
251.1841, 1.814728
251.6663, 2.272247
252.1484, 2.774872
252.6305, 3.182632
253.1126, 3.482056
253.5947, 3.660248
254.0768, 3.557938
254.5590, 3.494232
255.0411, 3.563141
255.5232, 3.718475
256.0053, 3.861023
256.4874, 3.938004
256.9695, 4.015366
257.4517, 4.260178
257.9338, 4.606735
258.4159, 5.267395
258.8980, 6.424133
259.3801, 7.753036
259.8622, 8.954773
260.3444, 9.966049
260.8265, 10.96422
261.3086, 12.26340
261.7907, 14.14836
262.2728, 15.89777
262.7549, 17.28322
263.2371, 18.62628
263.7192, 20.23982
264.2013, 22.21437
264.6834, 24.44034
265.1655, 26.77368
265.6476, 29.18118
266.1298, 31.80061
266.6119, 34.73764
267.0940, 37.84395
267.5761, 41.08778
268.0582, 44.45839
268.5403, 47.68320
269.0225, 50.53299
269.5046, 53.02898
269.9867, 54.62703
270.4688, 55.32045
270.9509, 55.09906
271.4330, 53.81509
271.9152, 51.48882
272.3973, 48.50761
272.8794, 45.16997
273.3615, 41.42233
273.8436, 37.52473
274.3257, 33.16667
274.8079, 28.85777
275.2900, 24.94710
275.7721, 21.45644
276.2542, 18.46144
276.7363, 16.03114
277.2184, 14.22275
277.7006, 12.72565
278.1827, 11.54367
278.6648, 10.68242
279.1469, 10.23322
279.6290, 10.16286
280.1111, 10.23073
280.5933, 10.31465
281.0754, 10.42874
281.5575, 10.59782
282.0396, 10.70580
282.5217, 11.00905
283.0038, 11.67381
283.4860, 12.67764
283.9681, 13.92873
284.4502, 15.45938
284.9323, 17.10899
285.4144, 18.56587
285.8965, 19.73375
286.3787, 21.05013
286.8608, 22.79227
287.3429, 24.88760
287.8250, 27.05952
288.3071, 29.13544
288.7892, 31.33258
289.2714, 34.00287
289.7535, 37.18126
290.2356, 40.53275
290.7177, 43.87834
291.1998, 47.27380
291.6819, 50.88980
292.1641, 54.72824
292.6462, 58.89415
293.1283, 63.59174
293.6104, 68.74283
294.0925, 73.97932
294.5746, 79.01857
295.0568, 84.05165
295.5389, 89.49559
296.0210, 95.47002
296.5031, 101.6227
296.9852, 107.8067
297.4673, 113.9724
297.9495, 119.9936
298.4316, 125.8261
298.9137, 131.4688
299.3958, 136.8094
299.8779, 141.7675
300.3600, 146.8225
300.8422, 152.5174
301.3243, 158.4875
301.8064, 163.9627
302.2885, 168.3653
302.7706, 172.6743
303.2527, 178.3234
303.7349, 185.4615
304.2170, 192.1320
304.6991, 197.2581
305.1812, 201.4118
305.6633, 205.3483
306.1454, 209.1246
306.6276, 212.7301
307.1097, 216.4439
307.5918, 220.2008
308.0739, 222.9746
308.5560, 224.6180
309.0381, 224.7547
309.5203, 223.1983
310.0024, 219.8822
310.4845, 215.4210
310.9666, 210.0222
311.4487, 203.7653
311.9308, 197.0460
312.4130, 189.8978
312.8951, 182.3749
313.3772, 174.5280
313.8593, 166.3854
314.3414, 158.3498
314.8235, 150.6198
315.3057, 143.1312
315.7878, 135.5294
316.2699, 127.6468
316.7520, 120.0811
317.2341, 113.2960
317.7162, 107.1685
318.1984, 101.4978
318.6805, 96.42339
319.1626, 91.69699
319.6447, 86.85918
320.1268, 81.82506
320.6089, 77.11803
321.0911, 73.11331
321.5732, 69.59178
322.0553, 66.33084
322.5374, 63.31578
323.0195, 60.47182
323.5016, 57.68410
323.9838, 54.93304
324.4659, 52.53627
324.9480, 50.85587
325.4301, 49.44583
325.9122, 47.72502
326.3943, 45.57433
326.8765, 43.49005
327.3586, 41.82680
327.8407, 40.53461
328.3228, 39.42036
328.8049, 38.56207
329.2870, 37.67873
329.7692, 36.41905
330.2513, 34.82518
330.7334, 33.35069
331.2155, 32.19380
331.6976, 31.31917
332.1797, 30.65683
332.6619, 30.21506
333.1440, 29.94547
333.6261, 29.83215
334.1082, 29.85699
334.5903, 30.01961
335.0724, 30.33197
335.5546, 30.77631
336.0367, 31.36209
336.5188, 32.10442
337.0009, 32.86577
337.4830, 33.38034
337.9651, 33.92233
338.4473, 35.03540
338.9294, 37.04601
339.4115, 39.25560
339.8936, 40.95134
340.3757, 42.22093
340.8578, 43.83011
341.3400, 46.10284
341.8221, 48.87123
342.3042, 51.81825
342.7863, 54.96487
343.2684, 58.35017
343.7505, 61.97365
344.2327, 65.76889
344.7148, 69.70340
345.1969, 73.81299
345.6790, 78.08023
346.1611, 82.47662
346.6432, 86.98291
347.1254, 91.61327
347.6075, 96.25238
348.0896, 101.0365
348.5717, 106.2148
349.0538, 111.8423
349.5359, 117.2948
350.0181, 122.0854
350.5002, 126.3679
350.9823, 130.7969
351.4644, 135.6839
351.9465, 140.4139
352.4286, 144.8829
352.9108, 148.9420
353.3929, 152.0229
353.8750, 153.8758
354.3571, 154.4918
354.8392, 153.9184
355.3214, 152.1398
355.8035, 149.5475
356.2856, 146.3073
356.7677, 142.3190
357.2498, 137.3854
357.7319, 131.4271
358.2141, 124.6983
358.6962, 117.2219
359.1783, 108.8091
359.6604, 100.7155
360.1425, 92.86319
360.6246, 85.47931
361.1068, 78.97943
361.5889, 73.30109
362.0710, 67.89310
362.5531, 62.20538
363.0352, 56.27151
363.5173, 51.25677
363.9995, 47.92776
364.4816, 44.61501
364.9637, 40.22139
365.4458, 35.19676
365.9279, 30.71777
366.4100, 27.39806
366.8922, 25.03755
367.3743, 23.09483
367.8564, 21.97485
368.3385, 20.66960
368.8206, 18.78130
369.3027, 16.76634
369.7849, 15.14703
370.2670, 14.07881
370.7491, 13.36670
371.2312, 12.78238
371.7133, 12.48948
372.1954, 11.79388
372.6776, 10.44164
373.1597, 8.940125
373.6418, 7.430817
374.1239, 6.022369
374.6060, 4.946785
375.0881, 4.427635
375.5703, 4.444374
376.0524, 4.154663
376.5345, 3.089241
377.0166, 2.258270
377.4987, 2.076248
377.9808, 2.219948
378.4630, 2.185837
378.9451, 1.740974
379.4272, 1.080574
379.9093, 0.6823350
380.3914, 0.8076860
380.8735, 0.7575530
381.3557, 0.3330460
381.8378, 0.1350400
382.3199, 0.4370350
382.8020, 0.5286560
383.2841, 0.4441300
383.7662, 0.1577220
384.2484, 0.4052810
384.7305, 0.6411900
385.2126, 4.8264001E-02
385.6947, 0.3978270
386.1768, 0.2865140
386.6589, 0.2037730
387.1411, 0.6804890
387.6232, 0.9052350
388.1053, 0.9502720
388.5874, 1.108696
389.0695, 1.590195
389.5516, 1.771606
390.0338, 1.198219
390.5159, 0.4743650
390.9980, 0.2358700
391.4801, 0.6512150
391.9622, 1.203369
392.4443, 1.215317
392.9265, 0.6248550
393.4086, 0.1034700
393.8907, 0.3077550
394.3728, 0.5778880
394.8549, 0.5972290
395.3370, 0.4370120
395.8192, 0.3539050
396.3013, 0.6189960
396.7834, 1.084503
397.2655, 1.224411
397.7476, 0.9243010
398.2297, 0.5938870
398.7119, 0.3483430
399.1940, 0.2310030
399.6761, 0.3836210
400.1582, 0.9893190
400.6403, 1.545250
401.1224, 1.367744
401.6046, 0.5151210
402.0867, 4.8799999E-04
402.5688, 0.2485120
403.0509, 0.8353650
403.5330, 1.294662
404.0151, 1.632286
404.4973, 1.793236
404.9794, 1.693626
405.4615, 1.418755
405.9436, 1.034294
406.4257, 0.5134810
406.9078, 0.1748660
407.3900, 0.4009020
407.8721, 1.069939
408.3542, 1.510841
408.8363, 1.605789
409.3184, 1.524055
409.8005, 1.293510
410.2827, 0.9575580
410.7648, 0.6533660
411.2469, 0.4310760
411.7290, 0.2936170
412.2111, 0.2812120
412.6932, 0.4902110
413.1754, 0.5697170
413.6575, 0.2849200
414.1396, 6.4323001E-02
414.6217, 0.1027680
415.1038, 0.2098770
415.5859, 0.5573200
416.0681, 0.6270290
416.5502, 0.3927990
417.0323, 0.1326140
417.5144, 0.2388460
417.9965, 0.5444560
418.4786, 0.7181400
418.9608, 0.7727130
419.4429, 0.7146990
419.9250, 0.5404740
420.4071, 0.3170240
420.8892, 0.2307430
421.3713, 0.3641590
421.8535, 0.5240480
422.3356, 0.7139280
422.8177, 0.9192810
423.2998, 1.142769
423.7819, 1.377281
424.2640, 1.597252
424.7462, 1.790924
425.2283, 1.966042
425.7104, 1.998703
426.1925, 1.520325
426.6746, 1.310646
427.1567, 1.770050
427.6389, 2.598022
428.1210, 3.323593
428.6031, 3.715683
429.0852, 3.932205
429.5673, 4.305481
430.0494, 4.901108
430.5316, 5.399910
431.0137, 5.601700
431.4958, 5.757507
431.9779, 5.987045
432.4600, 6.321701
432.9421, 6.827202
433.4243, 7.610374
433.9064, 8.556313
434.3885, 9.332535
434.8706, 9.880333
435.3527, 10.44933
435.8348, 11.18082
436.3170, 12.01464
436.7991, 12.89394
437.2812, 13.81505
437.7633, 14.80375
438.2454, 15.79465
438.7275, 16.81891
439.2097, 18.16556
439.6918, 20.04564
440.1739, 22.11443
440.6560, 23.79995
441.1381, 25.07491
441.6202, 26.50558
442.1024, 28.11200
442.5845, 30.01340
443.0666, 32.46971
443.5487, 35.45958
444.0308, 38.46011
444.5129, 41.02283
444.9951, 43.23186
445.4772, 45.99159
445.9593, 49.70395
446.4414, 53.39650
446.9235, 56.66208
447.4056, 59.76148
447.8878, 63.16518
448.3699, 67.01154
448.8520, 70.95145
449.3341, 74.45681
449.8162, 77.33980
450.2983, 80.27355
450.7805, 83.36529
451.2626, 86.39767
451.7447, 89.10600
452.2268, 91.64608
452.7089, 94.43645
453.1910, 97.74223
453.6732, 101.5074
454.1553, 105.4990
454.6374, 109.9060
455.1195, 114.2095
455.6016, 118.8930
456.0837, 123.1251
456.5659, 126.2384
457.0480, 128.1090
457.5301, 128.8661
458.0122, 128.9411
458.4943, 128.3005
458.9764, 125.2826
459.4586, 119.0636
459.9407, 111.5659
460.4228, 103.2270
460.9049, 94.52383
461.3870, 86.35188
461.8691, 79.08640
462.3513, 72.40335
462.8334, 65.95159
463.3155, 59.75186
463.7976, 54.05798
464.2797, 48.97041
464.7618, 44.43192
465.2440, 40.32926
465.7261, 36.61177
466.2082, 33.20668
466.6903, 30.04338
467.1724, 27.22681
467.6545, 24.95586
468.1367, 23.23800
468.6188, 21.75166
469.1009, 20.31487
469.5830, 18.93393
470.0651, 17.61720
470.5472, 16.30984
471.0294, 15.11063
471.5115, 14.07666
471.9936, 13.18680
472.4757, 12.42802
472.9578, 11.76965
473.4399, 11.08494
473.9221, 10.21870
474.4042, 9.119644
474.8863, 8.276733
475.3684, 7.774300
475.8505, 7.404968
476.3326, 7.138023
476.8148, 6.931679
477.2969, 6.751266
477.7790, 6.580444
478.2611, 6.380989
478.7432, 6.090080
479.2253, 5.718613
479.7075, 5.273560
480.1896, 4.605629
480.6717, 3.992470
481.1538, 3.613106
481.6359, 3.442055
482.1180, 3.320381
482.6002, 3.169373
483.0823, 2.980629
483.5644, 2.689575
484.0465, 2.230476
484.5286, 1.870300
485.0107, 1.911949
485.4929, 2.047867
485.9750, 1.852737
486.4571, 1.213737
486.9392, 0.6122210
487.4213, 0.3388670
487.9034, 0.3123700
488.3856, 0.4269410
488.8677, 0.6988220
489.3498, 0.8422620
489.8319, 0.5141910
490.3140, 0.2285390
490.7961, 0.6085130
491.2783, 0.3035050
491.7604, 1.6525000E-02
492.2425, 7.4080001E-03
492.7246, 0.2201310
493.2067, 0.3024290
493.6888, 0.1419530
494.1710, 9.3712002E-02
494.6531, 0.1377870
495.1352, 9.3093999E-02
495.6173, 0.2563320
496.0994, 0.3140030
496.5815, 0.3518370
497.0637, 0.4096300
497.5458, 0.4803850
498.0279, 0.5459210
498.5100, 0.5986480
498.9921, 0.6282880
499.4742, 0.6091540
499.9564, 0.5408480
500.4385, 0.4245150
500.9206, 0.2609790
501.4027, 4.8797999E-02
501.8848, 0.2947160
502.3669, 0.7197570
502.8491, 0.9973680
503.3312, 0.9104840
503.8133, 0.5771870
504.2954, 0.2620850
504.7775, 7.3455997E-02
505.2596, 0.1908950
505.7418, 0.1687090
506.2239, 0.7380750
506.7060, 1.153687
507.1881, 1.395561
507.6702, 1.486404
508.1523, 1.292450
508.6345, 1.001472
509.1166, 0.9376600
509.5987, 1.149643
510.0808, 1.485725
510.5629, 1.859375
511.0450, 2.255730
511.5272, 2.538025
512.0093, 2.623749
512.4914, 2.710815
512.9735, 2.774986
513.4556, 2.906746
513.9377, 3.329010
514.4199, 4.059250
514.9020, 4.739662
515.3841, 4.882500
515.8662, 4.393417
516.3483, 4.019287
516.8304, 3.437309
517.3126, 3.333481
517.7947, 4.383301
518.2768, 5.893532
518.7589, 6.757530
519.2410, 6.505646
519.7231, 5.971466
520.2053, 6.587471
520.6874, 8.486214
521.1695, 9.504852
521.6516, 8.852730
522.1337, 7.891174
522.6158, 7.517761
523.0980, 7.595039
523.5801, 7.729202
524.0622, 7.688072
524.5443, 7.737999
525.0264, 8.317474
525.5085, 9.313942
525.9907, 9.969742
526.4728, 9.916794
526.9549, 9.656158
527.4370, 9.980904
527.9191, 11.00775
528.4012, 11.85618
528.8834, 12.25318
529.3655, 12.60663
529.8476, 13.25864
530.3297, 14.11641
530.8118, 14.84671
531.2939, 15.26379
531.7761, 15.49005
532.2582, 15.81815
532.7403, 16.13132
533.2224, 16.78040
533.7045, 18.06131
534.1866, 19.37283
534.6688, 20.34257
535.1509, 21.02094
535.6330, 21.65730
536.1151, 22.38669
536.5972, 23.22134
537.0793, 24.23466
537.5615, 25.46631
538.0436, 26.68414
538.5257, 27.63795
539.0078, 28.69653
539.4899, 30.19743
539.9720, 32.14041
540.4542, 34.23691
540.9363, 36.32329
541.4184, 38.48660
541.9005, 40.79175
542.3826, 43.25402
542.8647, 46.06001
543.3469, 49.37401
543.8290, 53.04512
544.3111, 56.68393
544.7932, 60.03836
545.2753, 63.88026
545.7574, 68.42006
546.2396, 73.45698
546.7217, 78.94726
547.2038, 84.79884
547.6859, 90.65725
548.1680, 96.24709
548.6501, 101.7156
549.1323, 107.7679
549.6144, 114.7724
550.0965, 121.6725
550.5786, 128.2861
551.0607, 134.8379
551.5428, 141.5837
552.0250, 148.4663
552.5071, 155.0948
552.9892, 161.3162
553.4713, 167.0425
553.9534, 172.1224
554.4355, 176.5593
554.9177, 180.2918
555.3998, 183.2538
555.8819, 185.4837
556.3640, 187.3482
556.8461, 188.9628
557.3282, 189.2396
557.8104, 187.3267
558.2925, 184.1145
558.7746, 180.5672
559.2567, 176.7380
559.7388, 172.4709
560.2209, 167.6167
560.7031, 162.2777
561.1852, 156.7811
561.6673, 150.7858
562.1494, 145.0277
562.6315, 139.6905
563.1136, 134.4674
563.5958, 129.1116
564.0779, 123.6130
564.5600, 118.2463
565.0421, 113.1742
565.5242, 108.4154
566.0063, 104.0322
566.4885, 100.0740
566.9706, 96.39804
567.4527, 93.05389
567.9348, 89.97759
568.4169, 87.13868
568.8990, 84.53207
569.3812, 82.09206
569.8633, 79.83310
570.3454, 77.74657
570.8275, 75.93990
571.3096, 74.38672
571.7917, 72.54283
572.2739, 70.00236
572.7560, 67.25581
573.2381, 65.27238
573.7202, 64.33176
574.2023, 63.00508
574.6844, 60.89564
575.1666, 58.56856
575.6487, 56.34963
576.1308, 54.25049
576.6129, 52.14110
577.0950, 49.93708
577.5771, 47.75705
578.0593, 45.88156
578.5414, 44.44845
579.0235, 42.94279
579.5056, 41.02522
579.9877, 39.32719
580.4698, 38.43486
580.9520, 37.97517
581.4341, 37.02386
581.9162, 34.99924
582.3983, 32.66075
582.8804, 31.00525
583.3625, 29.98450
583.8447, 29.18991
584.3268, 28.60480
584.8089, 28.04536
585.2910, 27.26616
585.7731, 26.30542
586.2552, 25.57397
586.7374, 25.35857
587.2195, 25.11853
587.7016, 24.48695
588.1837, 23.66502
588.6658, 22.99767
589.1479, 22.59089
589.6301, 22.35226
590.1122, 22.18708
590.5943, 22.11057
591.0764, 21.96181
591.5585, 21.80101
592.0406, 21.48450
592.5228, 20.70261
593.0049, 19.87669
593.4870, 19.61372
593.9691, 20.04872
594.4512, 20.50037
594.9333, 20.22360
595.4155, 19.39871
595.8976, 18.82649
596.3797, 18.58734
596.8618, 18.44737
597.3439, 18.35039
597.8260, 18.22974
598.3082, 17.91850
598.7903, 17.29967
599.2724, 16.78820
599.7545, 16.62263
600.2366, 16.56575
600.7188, 16.35277
601.2009, 15.98076
601.6830, 15.62237
602.1651, 15.40021
602.6472, 15.26138
603.1293, 14.99693
603.6115, 14.46109
604.0936, 14.07032
604.5757, 14.03129
605.0578, 13.97422
605.5399, 13.61739
606.0220, 13.03424
606.5042, 12.51291
606.9863, 12.25019
607.4684, 12.08200
607.9505, 11.77335
608.4326, 11.32301
608.9147, 10.66520
609.3969, 9.643150
609.8790, 8.668579
610.3611, 8.332672
610.8432, 8.564240
611.3253, 8.464066
611.8074, 7.638779
612.2896, 6.773201
612.7717, 6.224136
613.2538, 5.879509
613.7359, 5.550186
614.2180, 5.174568
614.7001, 4.779999
615.1823, 4.411575
615.6644, 4.077751
616.1465, 3.573975
616.6286, 2.605621
617.1107, 1.884346
617.5928, 1.745422
618.0750, 1.837059
618.5571, 1.866478
619.0392, 1.764687
619.5213, 1.448700
620.0034, 0.6487050
620.4855, 0.3584370
620.9677, 0.9213640
621.4498, 1.001678
621.9319, 0.9657520
622.4140, 0.9706800
622.8961, 0.9919590
623.3782, 0.9675140
623.8604, 0.8622440
624.3425, 0.8253940
624.8246, 1.010117
625.3067, 1.148209
625.7888, 0.9789660
626.2709, 0.6182170
626.7531, 0.3624190
627.2352, 0.3592530
627.7173, 0.5118330
628.1994, 0.6885070
628.6815, 0.9305730
629.1636, 0.9586260
629.6458, 0.5596920
630.1279, 0.2015760
630.6100, 0.1689830
631.0921, 0.3177260
631.5742, 0.4150010
632.0563, 0.4347000
632.5385, 0.2991710
633.0206, 0.1969760
633.5027, 0.8498380
633.9848, 1.254417
634.4669, 1.352287
634.9490, 1.269966
635.4312, 1.037842
635.9133, 0.7395320
636.3954, 0.7736280
636.8775, 1.493530
637.3596, 2.081123
637.8417, 2.420319
638.3239, 2.692207
638.8060, 3.056702
639.2881, 3.476242
639.7702, 3.774689
640.2523, 3.818443
640.7344, 3.756981
641.2166, 3.871513
641.6987, 4.167244
642.1808, 4.513878
642.6629, 4.834343
643.1450, 5.287216
643.6271, 6.170372
644.1093, 7.340805
644.5914, 8.243515
645.0735, 8.507187
645.5556, 8.823273
646.0377, 9.590752
646.5198, 10.57610
647.0020, 11.34153
647.4841, 11.85772
647.9662, 12.63948
648.4483, 14.23812
648.9304, 16.45692
649.4125, 17.90636
649.8947, 18.03954
650.3768, 18.40926
650.8589, 19.17322
651.3410, 20.33424
651.8231, 22.11759
652.3052, 24.37621
652.7874, 26.46486
653.2695, 27.87185
653.7516, 29.12793
654.2337, 30.86540
654.7158, 33.03958
655.1979, 35.34090
655.6801, 37.64470
656.1622, 40.05945
656.6443, 42.69489
657.1264, 45.54112
657.6085, 48.73222
658.0906, 52.39262
658.5728, 56.18257
659.0549, 59.94096
659.5370, 63.86745
660.0191, 68.33391
660.5012, 73.29468
660.9833, 78.19538
661.4655, 82.34369
661.9476, 86.23094
662.4297, 91.36848
662.9118, 97.86610
663.3939, 104.6825
663.8760, 111.5644
664.3582, 118.5227
664.8403, 125.4059
665.3224, 132.2332
665.8045, 139.5985
666.2866, 148.2615
666.7687, 156.8045
667.2509, 164.3821
667.7330, 171.2654
668.2151, 178.0660
668.6972, 184.9069
669.1793, 191.2688
669.6614, 196.8111
670.1436, 201.4711
670.6257, 204.4254
671.1078, 205.5513
671.5899, 205.2516
672.0720, 203.5139
672.5541, 200.4243
673.0363, 195.8286
673.5184, 189.7819
674.0005, 182.7993
674.4826, 174.9319
674.9647, 166.3163
675.4468, 156.6606
675.9290, 146.2454
676.4111, 135.9735
676.8932, 126.1325
677.3753, 116.5647
677.8574, 107.0128
678.3395, 97.40314
678.8217, 89.36095
679.3038, 84.43755
679.7859, 79.20197
680.2680, 72.62412
680.7501, 65.85757
681.2322, 59.85515
681.7144, 54.78386
682.1965, 50.35443
682.6786, 46.60114
683.1607, 43.25938
683.6428, 39.89392
684.1249, 36.54736
684.6071, 33.61658
685.0892, 31.22552
685.5713, 29.15690
686.0534, 27.20257
686.5355, 25.37797
687.0176, 23.45039
687.4998, 21.02097
687.9819, 19.06161
688.4640, 18.17156
688.9461, 17.59304
689.4282, 16.46343
689.9103, 14.78046
690.3925, 13.25422
690.8746, 12.52620
691.3567, 12.27664
691.8388, 11.75352
692.3209, 10.94610
692.8030, 10.18607
693.2852, 9.581284
693.7673, 9.010338
694.2494, 8.293274
694.7315, 7.453468
695.2136, 6.844994
695.6957, 6.874825
696.1779, 6.660683
696.6600, 5.487106
697.1421, 4.169601
697.6242, 3.742378
698.1063, 4.219856
698.5884, 4.674759
699.0706, 4.367088
699.5527, 3.592346
700.0348, 3.216255
700.5169, 3.309052
700.9990, 3.296593
701.4811, 3.016853
701.9633, 2.684372
702.4454, 2.438454
702.9275, 2.284882
703.4096, 2.258728
703.8917, 2.597786
704.3738, 2.739601
704.8560, 2.230194
705.3381, 1.522362
705.8202, 1.137527
706.3023, 1.126099
706.7844, 1.314178
707.2665, 1.617508
707.7487, 1.913872
708.2308, 1.808380
708.7129, 1.191338
709.1950, 0.6838990
709.6771, 0.3612900
710.1592, 0.1586000
710.6414, 0.1033630
711.1235, 0.1238630
711.6056, 3.8033001E-02
712.0877, 0.2974010
712.5698, 0.4668580
713.0519, 0.1076890
713.5341, 0.4263690
714.0162, 0.7510150
714.4983, 0.8421550
714.9804, 0.8109510
715.4625, 0.7266160
715.9446, 0.5876010
716.4268, 0.3799590
716.9089, 6.7139000E-02
717.3910, 6.6917002E-02
717.8731, 0.1046070
718.3552, 0.2966080
718.8373, 0.3240510
719.3195, 0.3118520
719.8016, 0.4924620
720.2837, 0.9595720
720.7658, 1.249725
721.2479, 0.9981380
721.7300, 0.5634920
722.2122, 0.3183290
722.6943, 0.2489700
723.1764, 0.1617810
723.6585, 1.3733000E-02
724.1406, 0.1711730
724.6227, 0.1259460
725.1049, 0.1564180
725.5870, 0.3183140
726.0691, 0.3026580
726.5512, 0.2554170
727.0333, 0.2214660
727.5154, 0.1843260
727.9976, 8.2901001E-02
728.4797, 8.1551000E-02
728.9618, 0.1053920
729.4439, 0.1969530
729.9260, 0.5965420
730.4081, 1.039032
730.8903, 1.377655
731.3724, 1.185997
731.8545, 0.3848420
732.3366, 0.3833310
732.8187, 0.3959960
733.3008, 0.2644500
733.7830, 0.5983510
734.2651, 0.4358520
734.7472, 0.3170390
735.2293, 0.3572080
735.7114, 0.4875640
736.1935, 0.7783510
736.6757, 1.146103
737.1578, 1.239792
737.6399, 0.7655640
738.1220, 0.2264100
738.6041, 4.4799998E-02
739.0862, 0.1559910
739.5684, 0.3347470
740.0505, 0.5810010
740.5326, 0.6113890
741.0147, 0.1775510
741.4968, 0.5210570
741.9789, 0.8589780
742.4611, 0.7028350
742.9432, 0.6288760
743.4253, 0.8284000
743.9074, 0.9571690
744.3895, 0.6929470
744.8716, 0.2396700
745.3538, 2.9297000E-02
745.8359, 0.2304990
746.3180, 0.3979950
746.8001, 0.1429440
747.2822, 0.1340030
747.7643, 8.8303000E-02
748.2465, 0.6938170
748.7286, 1.241104
749.2107, 1.527618
749.6928, 1.581772
750.1749, 1.356522
750.6570, 0.8228760
751.1392, 0.6725460
751.6213, 1.116196
752.1034, 1.459000
752.5855, 1.410767
753.0676, 1.158035
753.5497, 0.7751160
754.0319, 0.2148590
754.5140, 5.2800002E-03
754.9961, 0.6606290
755.4782, 1.292084
755.9603, 1.237350
756.4424, 0.8171080
756.9246, 0.4751430
757.4067, 0.3390660
757.8888, 0.4376530
758.3709, 0.8823090
758.8530, 1.487030
759.3351, 1.534653
759.8173, 0.9387050
760.2994, 0.5293880
760.7815, 0.5244600
761.2636, 0.6675870
761.7457, 0.7821810
762.2278, 0.8737640
762.7100, 0.9554750
763.1921, 0.9626920
763.6742, 1.055771
764.1563, 1.419113
764.6384, 1.766083
765.1205, 1.832397
765.6027, 1.672211
766.0848, 1.466110
766.5669, 1.293259
767.0490, 1.230896
767.5311, 1.489807
768.0132, 1.978027
768.4954, 2.192993
768.9775, 2.093658
769.4596, 1.786118
769.9417, 1.160385
770.4238, 0.5729370
770.9059, 0.7618710
771.3881, 2.105118
771.8702, 2.549149
772.3523, 1.179001
772.8344, 4.0298000E-02
773.3165, 1.6330000E-03
773.7986, 0.4816590
774.2808, 0.8788760
774.7629, 1.044891
775.2450, 1.014465
775.7271, 0.7074280
776.2092, 0.3681640
776.6913, 0.2574770
777.1735, 0.3863980
777.6556, 0.8040620
778.1377, 1.543137
778.6198, 2.027756
779.1019, 1.676773
779.5840, 0.7139740
780.0662, 0.3169560
780.5483, 0.8682710
781.0304, 1.284515
781.5125, 1.431534
781.9946, 1.456818
782.4767, 1.404221
782.9589, 1.320282
783.4410, 1.260956
783.9231, 1.254929
784.4052, 1.204498
784.8873, 0.9836580
785.3694, 0.7460480
785.8516, 0.6985170
786.3337, 0.7630310
786.8158, 0.6959530
787.2979, 0.4117890
787.7800, 0.1687320
788.2621, 0.3736880
788.7443, 1.003708
789.2264, 1.336670
789.7085, 1.234848
790.1906, 1.187180
790.6727, 1.458527
791.1548, 1.833633
791.6370, 2.058395
792.1191, 2.139740
792.6012, 2.111664
793.0833, 1.897919
793.5654, 1.678894
794.0475, 1.429825
794.5297, 1.273071
795.0118, 1.474136
795.4939, 1.901062
795.9760, 2.029556
796.4581, 1.520950
796.9402, 0.8656460
797.4224, 0.9697720
797.9045, 1.651947
798.3866, 1.614304
798.8687, 0.6928100
799.3508, 0.1382450
799.8329, 0.3938450
800.3151, 0.3005980
800.7972, 0.2635800
801.2793, 0.3139650
801.7614, 0.2872470
802.2435, 7.3836997E-02
802.7256, 6.8053998E-02
803.2078, 1.9272000E-02
803.6899, 0.1460720
804.1720, 0.1207430
804.6541, 5.1102001E-02
805.1362, 0.2157290
805.6183, 0.3378750
806.1005, 0.4316410
806.5826, 0.4847870
807.0647, 0.5121610
807.5468, 0.5542450
808.0289, 0.6143190
808.5110, 0.6637880
808.9932, 0.6995390
809.4753, 0.6692960
809.9574, 0.3574220
810.4395, 0.3842320
810.9216, 0.7362820
811.4037, 0.5013430
811.8859, 0.1465760
812.3680, 0.2457890
812.8501, 0.5858150
813.3322, 0.6143950
813.8143, 0.2538910
814.2964, 4.5623999E-02
814.7786, 0.2790220
815.2607, 0.5178530
815.7428, 0.4880070
816.2249, 0.3238070
816.7070, 0.1595150
817.1891, 5.6823999E-02
817.6713, 0.1452180
818.1534, 0.6368710
818.6355, 1.208191
819.1176, 1.087616
819.5997, 0.3862760
820.0818, 4.2022999E-02
820.5640, 0.2531130
821.0461, 0.4967650
821.5282, 0.3620300
822.0103, 4.1533999E-02
822.4924, 0.1545410
822.9745, 1.159164
823.4567, 1.571198
823.9388, 0.8611450
824.4209, 0.1731410
824.9030, 9.6863002E-02
825.3851, 0.1076510
825.8672, 1.7120000E-02
826.3494, 0.1430820
826.8315, 0.2001800
827.3136, 4.7028001E-02
827.7957, 0.3150330
828.2778, 0.3547360
828.7599, 0.2393040
829.2421, 6.3904002E-02
829.7242, 0.1169130
830.2063, 0.1466220
830.6884, 0.1471860
831.1705, 0.5429530
831.6526, 0.3887480
832.1348, 0.3308870
832.6169, 0.4880680
833.0990, 0.3072360
833.5811, 0.7983860
834.0632, 2.2307999E-02
834.5453, 1.372360
835.0275, 1.952225
835.5096, 1.402161
835.9917, 0.9383700
836.4738, 0.6311950
836.9559, 0.3275450
837.4380, 0.1803440
837.9202, 0.6291660
838.4023, 0.6596370
838.8844, 0.2769930
839.3665, 0.1906280
839.8486, 0.6053010
840.3307, 0.9878230
840.8129, 1.562027
841.2950, 2.058044
841.7771, 1.706787
842.2592, 0.5547790
842.7413, 0.3921050
843.2234, 0.4879150
843.7056, 5.6701999E-02
844.1877, 0.2963870
844.6698, 0.5690460
845.1519, 0.7306820
845.6340, 0.7429660
846.1161, 0.7435760
846.5983, 0.7928010
847.0804, 0.8377530
847.5625, 0.7437440
848.0446, 0.4840240
848.5267, 0.5450900
849.0089, 1.146744
849.4910, 1.810577
849.9731, 2.558792
850.4552, 3.194656
850.9373, 3.501190
851.4194, 3.537872
851.9016, 3.527084
852.3837, 3.549881
852.8658, 3.619080
853.3479, 3.725327
853.8300, 3.896713
854.3121, 4.146515
854.7943, 4.497757
855.2764, 5.124374
855.7585, 6.102631
856.2406, 7.044922
856.7227, 7.359695
857.2048, 7.104813
857.6870, 7.439972
858.1691, 8.606018
858.6512, 9.470810
859.1333, 9.576660
859.6154, 9.579147
860.0975, 10.15811
860.5797, 11.15886
861.0618, 11.71448
861.5439, 11.29709
862.0260, 11.32690
862.5081, 12.48845
862.9902, 13.61253
863.4724, 14.07657
863.9545, 13.99710
864.4366, 13.52589
864.9187, 12.71939
865.4008, 12.03966
865.8829, 11.83699
866.3651, 11.88301
866.8472, 11.96133
867.3293, 12.06711
867.8114, 12.22539
868.2935, 12.40167
868.7756, 12.50078
869.2578, 12.45056
869.7399, 12.41040
870.2220, 12.83481
870.7041, 13.74239
871.1862, 14.33278
871.6683, 14.41454
872.1505, 14.63652
872.6326, 15.41190
873.1147, 16.41982
873.5968, 17.05971
874.0789, 17.15533
874.5610, 17.83273
875.0432, 19.76660
875.5253, 21.35556
876.0074, 21.89912
876.4895, 22.22707
876.9716, 22.99425
877.4537, 24.19225
877.9359, 25.55771
878.4180, 27.03580
878.9001, 28.60706
879.3822, 30.28758
879.8643, 32.04056
880.3464, 33.86394
880.8286, 35.73795
881.3107, 37.53366
881.7928, 39.22421
882.2749, 41.17191
882.7570, 43.86568
883.2391, 47.06955
883.7213, 50.00740
884.2034, 52.69267
884.6855, 55.37595
885.1676, 58.11227
885.6497, 60.83296
886.1318, 63.54665
886.6140, 66.20009
887.0961, 68.59346
887.5782, 70.73387
888.0603, 72.55025
888.5424, 73.47414
889.0245, 74.82733
889.5067, 77.69046
889.9888, 80.98285
890.4709, 83.60327
890.9530, 85.49106
891.4351, 86.50397
891.9172, 86.00101
892.3994, 85.50421
892.8815, 85.67941
893.3636, 86.11841
893.8457, 86.56677
894.3278, 86.89206
894.8099, 86.85590
895.2921, 86.31697
895.7742, 85.69183
896.2563, 85.38034
896.7384, 85.30606
897.2205, 85.34691
897.7026, 85.46323
898.1848, 85.65057
898.6669, 85.88780
899.1490, 85.81992
899.6311, 85.05988
900.1132, 83.77307
900.5953, 82.58582
901.0775, 81.52542
901.5596, 80.43491
902.0417, 79.34338
902.5238, 77.98248
903.0059, 76.11870
903.4880, 73.96259
903.9702, 71.98820
904.4523, 70.40356
904.9344, 68.17612
905.4165, 64.86089
905.8986, 61.48097
906.3807, 58.01822
906.8629, 54.74922
907.3450, 52.03638
907.8271, 49.74374
908.3092, 47.32600
908.7913, 44.49089
909.2734, 41.78830
909.7556, 39.49936
910.2377, 37.39757
910.7198, 35.28125
911.2019, 33.19260
911.6840, 31.25645
912.1661, 29.51115
912.6483, 27.88708
913.1304, 26.45848
913.6125, 25.02806
914.0946, 23.08618
914.5767, 20.82072
915.0588, 19.00925
915.5410, 17.76385
916.0231, 16.76521
916.5052, 15.81595
916.9873, 14.95421
917.4694, 14.21088
917.9515, 13.56297
918.4337, 12.88504
918.9158, 12.16141
919.3979, 11.38765
919.8800, 10.47801
920.3621, 9.793793
920.8442, 9.825241
921.3264, 10.43968
921.8085, 10.48260
922.2906, 9.530807
922.7727, 8.680344
923.2548, 8.057907
923.7369, 7.528992
924.2191, 6.907928
924.7012, 6.303146
925.1833, 6.090103
925.6654, 6.350586
926.1475, 6.358414
926.6296, 5.613159
927.1118, 4.963776
927.5939, 4.879425
928.0760, 4.925934
928.5581, 4.631546
929.0402, 4.098206
929.5223, 3.697769
930.0045, 3.539581
930.4866, 3.620209
930.9687, 4.292130
931.4508, 5.056519
931.9329, 5.053467
932.4150, 4.432251
932.8972, 3.635223
933.3793, 2.852600
933.8614, 2.471649
934.3435, 2.901276
934.8256, 3.782791
935.3077, 4.318329
935.7899, 4.513611
936.2720, 4.341507
936.7541, 3.767471
937.2362, 3.114502
937.7183, 2.469101
938.2004, 2.073029
938.6826, 2.361908
939.1647, 3.358673
939.6468, 3.984543
940.1289, 4.098755
940.6110, 4.176682
941.0931, 4.216782
941.5753, 4.353287
942.0574, 4.668213
942.5395, 5.156723
943.0216, 5.850159
943.5037, 6.916733
943.9858, 7.668945
944.4680, 7.689163
944.9501, 7.829224
945.4322, 8.396164
945.9143, 9.249878
946.3964, 10.36986
946.8785, 11.65315
947.3607, 12.75476
947.8428, 13.64836
948.3249, 14.17451
948.8070, 13.90776
949.2891, 13.52077
949.7712, 13.70613
950.2534, 14.25063
950.7355, 14.68251
951.2176, 14.85930
951.6997, 14.86072
952.1818, 14.77985
952.6639, 14.50760
953.1461, 13.78951
953.6282, 12.79099
954.1103, 11.86259
954.5924, 11.05984
955.0745, 10.36745
955.5566, 9.776077
956.0388, 9.287079
956.5209, 9.016571
957.0030, 8.841843
957.4851, 7.939713
957.9672, 6.315567
958.4493, 5.262894
958.9315, 5.104996
959.4136, 5.345917
959.8957, 5.750534
960.3778, 6.035446
960.8599, 5.289856
961.3420, 3.095657
961.8242, 2.125671
962.3063, 2.967545
962.7884, 3.590775
963.2705, 3.275650
963.7526, 2.560165
964.2347, 1.868073
964.7169, 1.226913
965.1990, 0.8377230
965.6811, 0.8757020
966.1632, 0.9016420
966.6453, 0.8117370
967.1274, 0.8281860
967.6096, 1.215088
968.0917, 1.662857
968.5738, 1.800201
969.0559, 1.603516
969.5380, 1.222198
970.0201, 0.4370570
970.5023, 0.1862340
970.9844, 0.5160980
971.4665, 0.5442500
971.9486, 3.0060001E-03
972.4307, 0.7705690
972.9128, 1.085098
973.3950, 0.7761380
973.8771, 0.2871250
974.3592, 0.3178410
974.8413, 0.7901000
975.3234, 0.8591000
975.8055, 0.6816250
976.2877, 0.3696440
976.7698, 4.3625001E-02
977.2519, 2.2384999E-02
977.7340, 0.4658200
978.2161, 0.9521030
978.6982, 1.023590
979.1804, 0.8274690
979.6625, 0.5310970
980.1446, 0.2185820
980.6267, 0.2771300
981.1088, 0.7164920
981.5909, 0.8303070
982.0731, 8.1603996E-02
982.5552, 0.9615940
983.0373, 1.300049
983.5194, 0.9912410
984.0015, 0.2761380
984.4836, 0.8311160
984.9658, 1.298141
985.4479, 0.7395170
985.9300, 1.6983001E-02
986.4121, 5.4306000E-02
986.8942, 0.3084260
987.3763, 0.2999730
987.8585, 0.1566770
988.3406, 0.4446870
988.8227, 0.4333800
989.3048, 0.6506650
989.7869, 1.496414
990.2690, 2.300232
990.7512, 2.129547
991.2333, 1.105362
991.7154, 0.8096770
992.1975, 1.770203
992.6796, 2.334991
993.1617, 2.076691
993.6439, 1.844589
994.1260, 2.124695
994.6081, 2.619034
995.0902, 2.876617
995.5723, 2.884018
996.0544, 3.023788
996.5366, 3.337616
997.0187, 3.748352
997.5008, 4.449844
997.9829, 5.039078
998.4650, 5.238159
998.9471, 5.180878
999.4293, 4.983414
999.9114, 4.633453
1000.393, 4.720062
1000.876, 5.609772
1001.358, 6.706909
1001.840, 8.022812
1002.322, 9.212372
1002.804, 9.834229
1003.286, 10.11966
1003.768, 10.65102
1004.250, 11.59218
1004.733, 12.58830
1005.215, 13.49577
1005.697, 14.34007
1006.179, 15.04970
1006.661, 15.75291
1007.143, 16.68686
1007.625, 17.77136
1008.107, 18.74011
1008.589, 19.48489
1009.072, 20.00735
1009.554, 20.16245
1010.036, 20.20206
1010.518, 20.69592
1011.000, 21.21045
1011.482, 20.56526
1011.964, 18.90681
1012.446, 17.86610
1012.929, 18.39301
1013.411, 19.22192
1013.893, 18.70639
1014.375, 17.46999
1014.857, 16.75414
1015.339, 16.46028
1015.821, 16.14944
1016.303, 15.70245
1016.785, 15.09346
1017.268, 14.29424
1017.750, 13.38983
1018.232, 12.43613
1018.714, 11.49483
1019.196, 10.83293
1019.678, 10.41959
1020.160, 10.13609
1020.642, 9.945633
1021.125, 9.601120
1021.607, 8.869003
1022.089, 7.942474
1022.571, 7.281281
1023.053, 6.867905
1023.535, 6.373138
1024.017, 5.775940
1024.499, 5.444138
1024.981, 5.523941
1025.464, 5.682693
1025.946, 5.630783
1026.428, 5.400177
1026.910, 5.085159
1027.392, 4.684341
1027.874, 4.148636
1028.356, 3.351120
1028.838, 2.945251
1029.321, 3.253662
1029.803, 3.894485
1030.285, 4.507294
1030.767, 5.028732
1031.249, 5.222321
1031.731, 5.064697
1032.213, 4.612991
1032.695, 3.692902
1033.177, 2.952072
1033.660, 2.641220
1034.142, 2.609085
1034.624, 2.765884
1035.106, 3.043991
1035.588, 3.064728
1036.070, 2.692322
1036.552, 2.402847
1037.034, 2.299286
1037.516, 2.159409
1037.999, 1.669571
1038.481, 1.331284
1038.963, 1.938690
1039.445, 3.297882
1039.927, 3.777557
1040.409, 2.648712
1040.891, 1.831329
1041.373, 1.298996
1041.855, 1.131790
1042.338, 1.613678
1042.820, 2.197906
1043.302, 2.311737
1043.784, 2.033676
1044.266, 1.862900
1044.748, 1.841827
1045.230, 1.835114
1045.712, 1.972733
1046.195, 1.986237
1046.677, 1.722412
1047.159, 1.327545
1047.641, 0.8448790
1048.123, 0.3557430
1048.605, 0.2160950
1049.087, 0.7935940
1049.569, 1.120850
1050.052, 0.7569580
1050.534, 0.4830020
1051.016, 0.8873750
1051.498, 1.388168
1051.980, 1.190781
1052.462, 0.4245150
1052.944, 0.1142880
1053.426, 0.5266720
1053.908, 1.081833
1054.391, 1.862976
1054.873, 2.472427
1055.355, 2.802948
1055.837, 2.808350
1056.319, 2.106522
1056.801, 0.9329220
1057.283, 0.4801330
1057.765, 1.329010
1058.248, 2.186432
1058.730, 2.881195
1059.212, 3.276917
1059.694, 3.221252
1060.176, 2.873688
1060.658, 2.266693
1061.140, 1.543518
1061.622, 1.198456
1062.104, 1.545166
1062.587, 1.764374
1063.069, 1.284393
1063.551, 0.9044800
1064.033, 1.179443
1064.515, 1.744904
1064.997, 2.312042
1065.479, 2.754242
1065.961, 2.800018
1066.443, 2.229187
1066.926, 1.765381
1067.408, 1.804718
1067.890, 1.920502
1068.372, 1.902893
1068.854, 1.788361
1069.336, 1.511932
1069.818, 1.195129
1070.300, 1.241272
1070.782, 1.878387
1071.265, 2.324219
1071.747, 2.114410
1072.229, 1.755188
1072.711, 1.466400
1073.193, 1.259125
1073.675, 1.164154
1074.157, 1.142792
1074.639, 1.119446
1075.122, 1.088135
1075.604, 0.9422300
1076.086, 0.2394410
1076.568, 0.1279910
1077.050, 0.9143370
1077.532, 2.119354
1078.014, 1.983185
1078.496, 0.9313050
1078.979, 0.2994080
1079.461, 0.4378660
1079.943, 0.7816160
1080.425, 1.330627
1080.907, 1.703125
1081.389, 1.537018
1081.871, 1.216888
1082.353, 1.091095
1082.835, 1.116852
1083.318, 1.154785
1083.800, 1.170349
1084.282, 1.077393
1084.764, 0.5598450
1085.246, 0.2833860
1085.728, 0.8826290
1086.210, 1.584137
1086.692, 1.545563
1087.175, 1.184570
1087.657, 1.449341
1088.139, 2.449310
1088.621, 3.115662
1089.103, 2.883514
1089.585, 2.419006
1090.067, 1.649597
1090.549, 1.116943
1091.031, 1.508362
1091.514, 2.267395
1091.996, 2.461090
1092.478, 2.044464
1092.960, 1.827209
1093.442, 2.269684
1093.924, 2.600311
1094.406, 2.434357
1094.888, 2.170807
1095.370, 2.078064
1095.853, 2.044647
1096.335, 1.889923
1096.817, 1.636017
1097.299, 1.491028
1097.781, 1.647766
1098.263, 1.548676
1098.745, 0.5755620
1099.227, 0.1715390
1099.709, 0.1401060
1100.192, 0.7933040
1100.674, 1.052399
1101.156, 0.9338070
1101.638, 0.6988530
1102.120, 0.2760930
1102.602, 0.2124330
1103.084, 1.183807
1103.566, 1.836151
1104.049, 1.384979
1104.531, 0.6123960
1105.013, 1.2604000E-02
1105.495, 0.3752140
1105.977, 0.2157290
1106.459, 0.6257630
1106.941, 1.094208
1107.423, 0.4432370
1107.906, 0.1921390
1108.388, 1.504822
1108.870, 2.572510
1109.352, 1.823792
1109.834, 0.1792910
1110.316, 0.7682800
1110.798, 0.9086300
1111.280, 0.8042910
1111.762, 9.6984997E-02
1112.245, 0.2670590
1112.727, 0.1281130
1113.209, 0.5565490
1113.691, 0.7024230
1114.173, 0.6530150
1114.655, 0.4618230
1115.137, 0.1537780
1115.619, 6.8970001E-03
1116.102, 0.1101070
1116.584, 0.1522830
1117.066, 0.2090450
1117.548, 4.7913000E-02
1118.030, 0.6903080
1118.512, 1.376740
1118.994, 1.334778
1119.476, 0.7542720
1119.958, 0.3927610
1120.441, 0.2512510
1120.923, 0.3372800
1121.405, 0.8187260
1121.887, 1.158539
1122.369, 1.134094
1122.851, 1.100983
1123.333, 1.396942
1123.815, 1.787903
1124.297, 1.724518
1124.780, 1.161072
1125.262, 0.7206420
1125.744, 0.3666990
1126.226, 0.3515630
1126.708, 0.8551330
1127.190, 1.154938
1127.672, 0.7348020
1128.154, 0.2315060
1128.636, 0.6723330
1129.119, 1.877136
1129.601, 2.260559
1130.083, 1.744598
1130.565, 1.311188
1131.047, 1.057800
1131.529, 0.7962040
1132.011, 0.4285280
1132.493, 0.1563720
1132.976, 0.1676640
1133.458, 0.4755550
1133.940, 1.351318
1134.422, 2.683929
1134.904, 2.937317
1135.386, 2.097626
1135.868, 1.314453
1136.350, 0.9100340
1136.833, 1.058502
1137.315, 1.964996
1137.797, 2.968079
1138.279, 2.683075
1138.761, 1.628448
1139.243, 1.772614
1139.725, 2.803925
1140.207, 3.357544
1140.689, 3.246582
1141.172, 2.912903
1141.654, 2.564240
1142.136, 2.229462
1142.618, 1.949005
1143.100, 1.691650
1143.582, 1.230682
1144.064, 0.8281250
1144.546, 1.319916
1145.029, 2.370392
1145.511, 2.613281
1145.993, 1.780762
1146.475, 1.207458
1146.957, 1.990021
1147.439, 2.883270
1147.921, 2.494446
1148.403, 1.664307
1148.885, 1.179932
1149.368, 1.128967
1149.850, 1.830505
1150.332, 3.014862
1150.814, 3.559631
1151.296, 2.873016
1151.778, 2.282471
1152.260, 2.804779
1152.742, 3.433685
1153.224, 3.508453
1153.707, 3.330505
1154.189, 3.242371
1154.671, 3.191589
1155.153, 2.910736
1155.635, 2.346619
1156.117, 2.018890
1156.599, 2.442780
1157.081, 2.624908
1157.563, 1.806244
1158.046, 1.182648
1158.528, 1.739563
1159.010, 2.771912
1159.492, 3.382690
1159.974, 3.542236
1160.456, 3.575012
1160.938, 3.489258
1161.420, 3.310272
1161.903, 2.944885
1162.385, 2.603973
1162.867, 2.272675
1163.349, 2.055847
1163.831, 2.126465
1164.313, 2.386322
1164.795, 2.595856
1165.277, 2.762695
1165.760, 2.640869
1166.242, 2.059631
1166.724, 1.812866
1167.206, 2.063416
1167.688, 2.542999
1168.170, 3.195679
1168.652, 3.632904
1169.134, 3.188965
1169.616, 2.224396
1170.099, 2.474670
1170.581, 3.955750
1171.063, 4.116394
1171.545, 2.812225
1172.027, 2.045441
1172.509, 2.448395
1172.991, 3.140961
1173.473, 3.483093
1173.956, 3.568329
1174.438, 3.526917
1174.920, 3.306549
1175.402, 2.768097
1175.884, 2.060120
1176.366, 1.633453
1176.848, 1.568970
1177.330, 1.943481
1177.813, 2.764526
1178.295, 3.480072
1178.777, 3.564575
1179.259, 3.418762
1179.741, 3.539642
1180.223, 3.705109
1180.705, 3.668793
1181.187, 3.485809
1181.669, 3.324585
1182.151, 3.177948
1182.634, 2.749512
1183.116, 1.654968
1183.598, 1.143158
1184.080, 2.589447
1184.562, 4.148315
1185.044, 4.670410
1185.526, 4.597687
1186.008, 4.375763
1186.490, 4.027557
1186.973, 3.333313
1187.455, 2.250427
1187.937, 1.749115
1188.419, 2.170227
1188.901, 2.657471
1189.383, 3.397552
1189.865, 3.902771
1190.347, 3.658478
1190.830, 3.229065
1191.312, 3.299103
1191.794, 3.763275
1192.276, 4.062714
1192.758, 4.223755
1193.240, 3.980164
1193.722, 3.026184
1194.204, 2.660065
1194.687, 3.335724
1195.169, 4.179871
1195.651, 4.708008
1196.133, 4.918640
1196.615, 4.823334
1197.097, 4.412903
1197.579, 3.357727
1198.061, 1.719696
1198.543, 1.062714
1199.026, 1.467010
1199.508, 1.669769
1199.990, 1.266205
1200.472, 1.245209
1200.954, 2.501129
1201.436, 3.987000
1201.918, 4.029785
1202.400, 3.228912
1202.883, 2.474060
1203.365, 1.964050
1203.847, 2.244904
1204.329, 3.150330
1204.811, 3.961914
1205.293, 4.398438
1205.775, 4.501251
1206.257, 4.229492
1206.740, 3.741730
1207.222, 2.850647
1207.704, 2.084686
1208.186, 1.972351
1208.668, 2.290466
1209.150, 2.850281
1209.632, 3.489441
1210.114, 3.665222
1210.596, 3.038208
1211.078, 2.655701
1211.561, 3.222504
1212.043, 3.377075
1212.525, 1.987091
1213.007, 0.8439330
1213.489, 1.470612
1213.971, 2.748505
1214.453, 2.817474
1214.935, 1.780701
1215.417, 1.643219
1215.900, 2.783508
1216.382, 3.314148
1216.864, 2.966644
1217.346, 2.767944
1217.828, 3.053040
1218.310, 3.445435
1218.792, 3.707733
1219.274, 3.760376
1219.757, 3.366241
1220.239, 2.656738
1220.721, 2.367645
1221.203, 2.374817
1221.685, 1.773956
1222.167, 0.6992190
1222.649, 0.6389770
1223.131, 2.003662
1223.614, 3.251740
1224.096, 3.180237
1224.578, 2.597565
1225.060, 2.155396
1225.542, 1.913727
1226.024, 2.065948
1226.506, 2.391846
1226.988, 2.655151
1227.470, 2.746490
1227.953, 2.496643
1228.435, 1.945801
1228.917, 1.293152
1229.399, 0.4142460
1229.881, 0.1599430
1230.363, 5.8990002E-02
1230.845, 0.1466370
1231.327, 7.0952997E-02
1231.810, 0.2037960
1232.292, 0.5986020
1232.774, 2.001556
1233.256, 2.708435
1233.738, 2.620026
1234.220, 2.153900
1234.702, 1.018585
1235.184, 0.5126340
1235.667, 1.060181
1236.149, 1.375275
1236.631, 0.6779480
1237.113, 1.8300000E-04
1237.595, 0.7182920
1238.077, 2.221313
1238.559, 2.764679
1239.041, 2.449310
1239.523, 1.413177
1240.005, 8.5326999E-02
1240.488, 0.8022770
1240.970, 0.5604550
1241.452, 3.7872002E-02
1241.934, 0.4258420
1242.416, 0.9819030
1242.898, 2.240936
1243.380, 3.165985
1243.862, 2.447052
1244.344, 1.061310
1244.827, 0.4370730
1245.309, 1.392273
1245.791, 0.4056090
1246.273, 2.085175
1246.755, 3.206299
1247.237, 1.618652
1247.719, 0.8699650
1248.201, 3.003754
1248.684, 4.292328
1249.166, 2.725067
1249.648, 1.050507
1250.130, 0.9527280
1250.612, 1.571533
1251.094, 1.855682
1251.576, 1.894531
1252.058, 2.443634
1252.541, 3.595459
1253.023, 4.771606
1253.505, 6.059235
1253.987, 5.892975
1254.469, 3.906311
1254.951, 2.453949
1255.433, 2.844482
1255.915, 3.713989
1256.397, 3.363434
1256.880, 2.444153
1257.362, 2.112396
1257.844, 2.115295
1258.326, 2.385376
1258.808, 2.715240
1259.290, 2.862976
1259.772, 2.810883
1260.254, 3.318939
1260.737, 4.841553
1261.219, 5.925110
1261.701, 5.404297
1262.183, 4.752716
1262.665, 4.372864
1263.147, 3.720398
1263.629, 2.715973
1264.111, 2.010468
1264.594, 2.458252
1265.076, 3.649170
1265.558, 3.373260
1266.040, 2.161530
1266.522, 1.409668
1267.004, 0.7801210
1267.486, 1.005951
1267.968, 2.222778
1268.450, 3.418823
1268.932, 4.004517
1269.415, 4.105530
1269.897, 3.698578
1270.379, 2.967438
1270.861, 2.617371
1271.343, 2.474884
1271.825, 1.902588
1272.307, 1.187134
1272.789, 1.217377
1273.271, 1.886169
1273.754, 1.932648
1274.236, 0.8926700
1274.718, 2.8534001E-02
1275.200, 0.1094360
1275.682, 0.4453430
1276.164, 0.2716670
1276.646, 7.3239999E-03
1277.128, 4.3915000E-02
1277.611, 0.1427610
1278.093, 0.8755490
1278.575, 1.839172
1279.057, 1.773254
1279.539, 0.4718630
1280.021, 0.2119750
1280.503, 1.367798
1280.985, 1.817139
1281.468, 1.108459
1281.950, 0.6419070
1282.432, 0.8503420
1282.914, 1.047729
1283.396, 0.8309940
1283.878, 0.4855350
1284.360, 0.6751100
1284.842, 0.9199220
1285.324, 0.0000000E+00
##END=



